Time	Channel A
(us)	(mV)

0.00000000	59.29746000
0.04000000	77.26676000
0.08000000	91.64098000
0.12000000	106.01520000
0.16000000	118.59490000
0.20000000	131.17470000
0.24000000	141.95990000
0.28000000	149.14400000
0.32000000	150.94450000
0.36000000	141.95990000
0.40000000	132.97520000
0.44000000	125.78510000
0.48000000	118.59490000
0.52000000	111.41090000
0.56000000	104.22070000
0.60000000	98.83114000
0.64000000	91.64098000
0.68000000	84.45692000
0.72000000	75.47227000
0.76000000	64.68703000
0.80000000	55.70238000
0.83999999	43.12265000
0.87999999	25.15336000
0.91999999	8.98464900
0.95999999	-7.18405700
0.99999999	-21.55827000
1.03999999	-35.93859000
1.07999999	-52.10730000
1.11999999	-66.48762000
1.15999999	-79.06125000
1.19999999	-88.04590000
1.23999999	-97.03055000
1.27999999	-104.22070000
1.31999999	-109.61030000
1.35999999	-111.41090000
1.39999999	-111.41090000
1.43999999	-107.81580000
1.47999999	-107.81580000
1.51999999	-102.42620000
1.55999999	-102.42620000
1.59999999	-102.42620000
1.63999999	-100.62560000
1.67999999	-102.42620000
1.71999999	-98.83114000
1.75999999	-100.62560000
1.79999999	-88.04590000
1.83999999	-82.65633000
1.87999999	-77.26676000
1.91999999	-79.06125000
1.95999999	-75.47227000
1.99999999	-73.67168000
2.03999999	-73.67168000
2.07999999	-71.87719000
2.11999999	-66.48762000
2.15999999	-61.09195000
2.19999999	-55.70238000
2.23999999	-50.31281000
2.27999999	-44.92325000
2.31999999	-37.73308000
2.35999999	-30.54292000
2.39999999	-17.96930000
2.43999999	0.00000000
2.47999998	21.55827000
2.51999998	43.12265000
2.55999998	64.68703000
2.59999998	91.64098000
2.63999998	116.80040000
2.67999998	140.15930000
2.71999998	159.92920000
2.75999998	177.89850000
2.79999998	172.50890000
2.83999998	165.31880000
2.87999998	147.34950000
2.91999998	141.95990000
2.95999998	129.38020000
2.99999998	120.39550000
3.03999998	111.41090000
3.07999998	106.01520000
3.11999998	100.62560000
3.15999998	93.44157000
3.19999998	86.25141000
3.23999998	82.65633000
3.27999998	73.67168000
3.31999998	64.68703000
3.35999998	55.70238000
3.39999998	37.73308000
3.43999998	17.96930000
3.47999998	-3.58897700
3.51999998	-25.15336000
3.55999998	-44.92325000
3.59999998	-64.68703000
3.63999998	-79.06125000
3.67999998	-89.84650000
3.71999998	-98.83114000
3.75999998	-104.22070000
3.79999998	-107.81580000
3.83999998	-107.81580000
3.87999998	-104.22070000
3.91999998	-100.62560000
3.95999998	-100.62560000
3.99999998	-98.83114000
4.03999998	-97.03055000
4.07999998	-97.03055000
4.11999997	-86.25141000
4.15999997	-82.65633000
4.19999997	-71.87719000
4.23999997	-70.07660000
4.27999997	-71.87719000
4.31999997	-71.87719000
4.35999997	-71.87719000
4.39999997	-75.47227000
4.43999997	-89.84650000
4.47999997	-79.06125000
4.51999997	-70.07660000
4.55999997	-71.87719000
4.59999997	-75.47227000
4.63999997	-73.67168000
4.67999997	-66.48762000
4.71999997	-57.50298000
4.75999997	-52.10730000
4.79999997	-41.32816000
4.83999997	-28.74844000
4.87999997	-17.96930000
4.91999997	-5.38956800
4.95999997	14.37422000
4.99999997	32.34352000
5.03999997	52.10730000
5.07999997	71.87719000
5.11999997	98.83114000
5.15999997	120.39550000
5.19999997	140.15930000
5.23999997	154.53350000
5.27999997	168.91380000
5.31999997	167.11330000
5.35999997	158.12860000
5.39999997	147.34950000
5.43999997	140.15930000
5.47999997	129.38020000
5.51999997	118.59490000
5.55999997	109.61030000
5.59999997	102.42620000
5.63999997	97.03055000
5.67999997	89.84650000
5.71999997	82.65633000
5.75999996	75.47227000
5.79999996	64.68703000
5.83999996	53.90789000
5.87999996	43.12265000
5.91999996	23.35887000
5.95999996	0.00000000
5.99999996	-16.16870000
6.03999996	-35.93859000
6.07999996	-57.50298000
6.11999996	-75.47227000
6.15999996	-86.25141000
6.19999996	-95.23605000
6.23999996	-104.22070000
6.27999996	-107.81580000
6.31999996	-109.61030000
6.35999996	-107.81580000
6.39999996	-104.22070000
6.43999996	-102.42620000
6.47999996	-98.83114000
6.51999996	-97.03055000
6.55999996	-84.45692000
6.59999996	-79.06125000
6.63999996	-68.28211000
6.67999996	-68.28211000
6.71999996	-66.48762000
6.75999996	-68.28211000
6.79999996	-71.87719000
6.83999996	-73.67168000
6.87999996	-79.06125000
6.91999996	-79.06125000
6.95999996	-79.06125000
6.99999996	-79.06125000
7.03999996	-77.26676000
7.07999996	-73.67168000
7.11999996	-70.07660000
7.15999996	-62.89254000
7.19999996	-55.70238000
7.23999996	-44.92325000
7.27999996	-35.93859000
7.31999996	-25.15336000
7.35999996	-14.37422000
7.39999996	-3.58897700
7.43999995	10.77914000
7.47999995	26.95395000
7.51999995	48.51222000
7.55999995	68.28211000
7.59999995	89.84650000
7.63999995	113.20540000
7.67999995	134.76970000
7.71999995	154.53350000
7.75999995	170.70830000
7.79999995	170.70830000
7.83999995	165.31880000
7.87999995	150.94450000
7.91999995	141.95990000
7.95999995	132.97520000
7.99999995	120.39550000
8.03999995	111.41090000
8.07999995	102.42620000
8.11999995	97.03055000
8.15999995	89.84650000
8.19999995	84.45692000
8.23999995	79.06125000
8.27999995	71.87719000
8.31999995	61.09195000
8.35999995	48.51222000
8.39999995	32.34352000
8.43999995	12.57363000
8.47999995	-8.98464900
8.51999995	-32.34352000
8.55999995	-53.90789000
8.59999995	-71.87719000
8.63999995	-88.04590000
8.67999995	-98.83114000
8.71999995	-106.01520000
8.75999995	-111.41090000
8.79999995	-111.41090000
8.83999995	-109.61030000
8.87999995	-104.22070000
8.91999995	-100.62560000
8.95999995	-97.03055000
8.99999995	-95.23605000
9.03999995	-88.04590000
9.07999994	-86.25141000
9.11999994	-80.86184000
9.15999994	-79.06125000
9.19999994	-77.26676000
9.23999994	-79.06125000
9.27999994	-82.65633000
9.31999994	-86.25141000
9.35999994	-88.04590000
9.39999994	-86.25141000
9.43999994	-84.45692000
9.47999994	-82.65633000
9.51999994	-82.65633000
9.55999994	-79.06125000
9.59999994	-73.67168000
9.63999994	-66.48762000
9.67999994	-59.29746000
9.71999994	-52.10730000
9.75999994	-41.32816000
9.79999994	-28.74844000
9.83999994	-16.16870000
9.87999994	-1.79448800
9.91999994	14.37422000
9.95999994	30.54292000
9.99999994	50.31281000
10.03999994	70.07660000
10.07999994	88.04590000
10.11999994	106.01520000
10.15999994	125.78510000
10.19999994	141.95990000
10.23999994	154.53350000
10.27999994	163.51820000
10.31999994	161.72370000
10.35999994	150.94450000
10.39999994	138.36480000
10.43999994	129.38020000
10.47999994	120.39550000
10.51999994	111.41090000
10.55999994	107.81580000
10.59999994	102.42620000
10.63999994	95.23605000
10.67999994	88.04590000
10.71999993	79.06125000
10.75999993	71.87719000
10.79999993	61.09195000
10.83999993	50.31281000
10.87999993	34.13800000
10.91999993	17.96930000
10.95999993	-3.58897700
10.99999993	-21.55827000
11.03999993	-39.52757000
11.07999993	-57.50298000
11.11999993	-71.87719000
11.15999993	-84.45692000
11.19999993	-93.44157000
11.23999993	-100.62560000
11.27999993	-106.01520000
11.31999993	-107.81580000
11.35999993	-106.01520000
11.39999993	-100.62560000
11.43999993	-89.84650000
11.47999993	-82.65633000
11.51999993	-68.28211000
11.55999993	-70.07660000
11.59999993	-71.87719000
11.63999993	-73.67168000
11.67999993	-75.47227000
11.71999993	-80.86184000
11.75999993	-82.65633000
11.79999993	-86.25141000
11.83999993	-88.04590000
11.87999993	-89.84650000
11.91999993	-89.84650000
11.95999993	-88.04590000
11.99999993	-84.45692000
12.03999993	-80.86184000
12.07999993	-71.87719000
12.11999993	-64.68703000
12.15999993	-53.90789000
12.19999993	-46.71774000
12.23999993	-39.52757000
12.27999993	-30.54292000
12.31999993	-21.55827000
12.35999992	-8.98464900
12.39999992	5.38956800
12.43999992	23.35887000
12.47999992	43.12265000
12.51999992	62.89254000
12.55999992	84.45692000
12.59999992	107.81580000
12.63999992	131.17470000
12.67999992	149.14400000
12.71999992	168.91380000
12.75999992	172.50890000
12.79999992	168.91380000
12.83999992	156.33410000
12.87999992	145.54890000
12.91999992	134.76970000
12.95999992	125.78510000
12.99999992	118.59490000
13.03999992	111.41090000
13.07999992	104.22070000
13.11999992	98.83114000
13.15999992	93.44157000
13.19999992	91.64098000
13.23999992	86.25141000
13.27999992	80.86184000
13.31999992	71.87719000
13.35999992	59.29746000
13.39999992	43.12265000
13.43999992	19.76379000
13.47999992	-1.79448800
13.51999992	-23.35887000
13.55999992	-43.12265000
13.59999992	-66.48762000
13.63999992	-79.06125000
13.67999992	-91.64098000
13.71999992	-104.22070000
13.75999992	-109.61030000
13.79999992	-113.20540000
13.83999992	-113.20540000
13.87999992	-109.61030000
13.91999992	-107.81580000
13.95999992	-95.23605000
13.99999991	-95.23605000
14.03999991	-79.06125000
14.07999991	-70.07660000
14.11999991	-59.29746000
14.15999991	-61.09195000
14.19999991	-59.29746000
14.23999991	-59.29746000
14.27999991	-73.67168000
14.31999991	-80.86184000
14.35999991	-71.87719000
14.39999991	-71.87719000
14.43999991	-79.06125000
14.47999991	-80.86184000
14.51999991	-79.06125000
14.55999991	-70.07660000
14.59999991	-66.48762000
14.63999991	-61.09195000
14.67999991	-50.31281000
14.71999991	-39.52757000
14.75999991	-32.34352000
14.79999991	-21.55827000
14.83999991	-10.77914000
14.87999991	0.00000000
14.91999991	14.37422000
14.95999991	34.13800000
14.99999991	53.90789000
15.03999991	71.87719000
15.07999991	93.44157000
15.11999991	116.80040000
15.15999991	140.15930000
15.19999991	156.33410000
15.23999991	168.91380000
15.27999991	167.11330000
15.31999991	161.72370000
15.35999991	145.54890000
15.39999991	140.15930000
15.43999991	131.17470000
15.47999991	120.39550000
15.51999991	109.61030000
15.55999991	107.81580000
15.59999991	102.42620000
15.63999990	95.23605000
15.67999990	88.04590000
15.71999990	86.25141000
15.75999990	80.86184000
15.79999990	71.87719000
15.83999990	57.50298000
15.87999990	43.12265000
15.91999990	23.35887000
15.95999990	0.00000000
15.99999990	-21.55827000
16.03999990	-43.12265000
16.07999990	-62.89254000
16.11999990	-79.06125000
16.15999990	-91.64098000
16.19999990	-102.42620000
16.23999990	-109.61030000
16.27999990	-111.41090000
16.31999990	-111.41090000
16.35999990	-102.42620000
16.39999990	-97.03055000
16.43999990	-88.04590000
16.47999990	-84.45692000
16.51999990	-80.86184000
16.55999990	-79.06125000
16.59999990	-80.86184000
16.63999990	-82.65633000
16.67999990	-84.45692000
16.71999990	-86.25141000
16.75999990	-88.04590000
16.79999990	-93.44157000
16.83999990	-95.23605000
16.87999990	-95.23605000
16.91999990	-95.23605000
16.95999990	-93.44157000
16.99999990	-86.25141000
17.03999990	-80.86184000
17.07999990	-73.67168000
17.11999990	-64.68703000
17.15999990	-55.70238000
17.19999990	-44.92325000
17.23999990	-32.34352000
17.27999989	-21.55827000
17.31999989	-7.18405700
17.35999989	7.18405700
17.39999989	19.76379000
17.43999989	35.93859000
17.47999989	52.10730000
17.51999989	68.28211000
17.55999989	82.65633000
17.59999989	98.83114000
17.63999989	113.20540000
17.67999989	125.78510000
17.71999989	138.36480000
17.75999989	147.34950000
17.79999989	150.94450000
17.83999989	149.14400000
17.87999989	143.75440000
17.91999989	132.97520000
17.95999989	125.78510000
17.99999989	118.59490000
18.03999989	111.41090000
18.07999989	106.01520000
18.11999989	100.62560000
18.15999989	95.23605000
18.19999989	89.84650000
18.23999989	80.86184000
18.27999989	71.87719000
18.31999989	61.09195000
18.35999989	48.51222000
18.39999989	34.13800000
18.43999989	17.96930000
18.47999989	0.00000000
18.51999989	-17.96930000
18.55999989	-35.93859000
18.59999989	-52.10730000
18.63999989	-66.48762000
18.67999989	-79.06125000
18.71999989	-89.84650000
18.75999989	-98.83114000
18.79999989	-104.22070000
18.83999989	-106.01520000
18.87999989	-109.61030000
18.91999989	-98.83114000
18.95999988	-93.44157000
18.99999988	-82.65633000
19.03999988	-82.65633000
19.07999988	-79.06125000
19.11999988	-79.06125000
19.15999988	-84.45692000
19.19999988	-84.45692000
19.23999988	-86.25141000
19.27999988	-84.45692000
19.31999988	-88.04590000
19.35999988	-91.64098000
19.39999988	-93.44157000
19.43999988	-91.64098000
19.47999988	-89.84650000
19.51999988	-86.25141000
19.55999988	-79.06125000
19.59999988	-70.07660000
19.63999988	-62.89254000
19.67999988	-52.10730000
19.71999988	-43.12265000
19.75999988	-35.93859000
19.79999988	-23.35887000
19.83999988	-12.57363000
19.87999988	1.79448800
19.91999988	17.96930000
19.95999988	35.93859000
19.99999988	53.90789000
20.03999988	71.87719000
20.07999988	91.64098000
20.11999988	109.61030000
20.15999988	129.38020000
20.19999988	145.54890000
20.23999988	158.12860000
20.27999988	165.31880000
20.31999988	163.51820000
20.35999988	156.33410000
20.39999988	141.95990000
20.43999988	134.76970000
20.47999988	125.78510000
20.51999988	116.80040000
20.55999988	113.20540000
20.59999987	107.81580000
20.63999987	100.62560000
20.67999987	95.23605000
20.71999987	91.64098000
20.75999987	86.25141000
20.79999987	79.06125000
20.83999987	70.07660000
20.87999987	57.50298000
20.91999987	43.12265000
20.95999987	25.15336000
20.99999987	5.38956800
21.03999987	-17.96930000
21.07999987	-35.93859000
21.11999987	-55.70238000
21.15999987	-71.87719000
21.19999987	-86.25141000
21.23999987	-97.03055000
21.27999987	-102.42620000
21.31999987	-107.81580000
21.35999987	-100.62560000
21.39999987	-95.23605000
21.43999987	-82.65633000
21.47999987	-79.06125000
21.51999987	-71.87719000
21.55999987	-71.87719000
21.59999987	-71.87719000
21.63999987	-73.67168000
21.67999987	-75.47227000
21.71999987	-77.26676000
21.75999987	-79.06125000
21.79999987	-82.65633000
21.83999987	-86.25141000
21.87999987	-86.25141000
21.91999987	-86.25141000
21.95999987	-84.45692000
21.99999987	-79.06125000
22.03999987	-71.87719000
22.07999987	-64.68703000
22.11999987	-59.29746000
22.15999987	-52.10730000
22.19999987	-44.92325000
22.23999986	-39.52757000
22.27999986	-30.54292000
22.31999986	-21.55827000
22.35999986	-10.77914000
22.39999986	1.79448800
22.43999986	17.96930000
22.47999986	35.93859000
22.51999986	57.50298000
22.55999986	77.26676000
22.59999986	98.83114000
22.63999986	116.80040000
22.67999986	136.56420000
22.71999986	149.14400000
22.75999986	163.51820000
22.79999986	161.72370000
22.83999986	158.12860000
22.87999986	145.54890000
22.91999986	138.36480000
22.95999986	129.38020000
22.99999986	122.19000000
23.03999986	115.00600000
23.07999986	111.41090000
23.11999986	106.01520000
23.15999986	102.42620000
23.19999986	98.83114000
23.23999986	95.23605000
23.27999986	91.64098000
23.31999986	84.45692000
23.35999986	75.47227000
23.39999986	61.09195000
23.43999986	43.12265000
23.47999986	21.55827000
23.51999986	0.00000000
23.55999986	-21.55827000
23.59999986	-43.12265000
23.63999986	-62.89254000
23.67999986	-79.06125000
23.71999986	-91.64098000
23.75999986	-104.22070000
23.79999986	-111.41090000
23.83999986	-111.41090000
23.87999985	-109.61030000
23.91999985	-93.44157000
23.95999985	-82.65633000
23.99999985	-71.87719000
24.03999985	-68.28211000
24.07999985	-61.09195000
24.11999985	-66.48762000
24.15999985	-77.26676000
24.19999985	-68.28211000
24.23999985	-64.68703000
24.27999985	-71.87719000
24.31999985	-80.86184000
24.35999985	-84.45692000
24.39999985	-82.65633000
24.43999985	-80.86184000
24.47999985	-80.86184000
24.51999985	-75.47227000
24.55999985	-68.28211000
24.59999985	-66.48762000
24.63999985	-66.48762000
24.67999985	-66.48762000
24.71999985	-64.68703000
24.75999985	-57.50298000
24.79999985	-43.12265000
24.83999985	-21.55827000
24.87999985	3.58897700
24.91999985	32.34352000
24.95999985	61.09195000
24.99999985	86.25141000
25.03999985	104.22070000
25.07999985	115.00600000
25.11999985	122.19000000
25.15999985	132.97520000
25.19999985	141.95990000
25.23999985	145.54890000
25.27999985	150.94450000
25.31999985	143.75440000
25.35999985	138.36480000
25.39999985	129.38020000
25.43999985	122.19000000
25.47999985	111.41090000
25.51999984	106.01520000
25.55999984	102.42620000
25.59999984	100.62560000
25.63999984	97.03055000
25.67999984	95.23605000
25.71999984	93.44157000
25.75999984	91.64098000
25.79999984	86.25141000
25.83999984	79.06125000
25.87999984	71.87719000
25.91999984	59.29746000
25.95999984	43.12265000
25.99999984	23.35887000
26.03999984	3.58897700
26.07999984	-19.76379000
26.11999984	-43.12265000
26.15999984	-66.48762000
26.19999984	-88.04590000
26.23999984	-106.01520000
26.27999984	-118.59490000
26.31999984	-125.78510000
26.35999984	-123.99060000
26.39999984	-120.39550000
26.43999984	-107.81580000
26.47999984	-97.03055000
26.51999984	-86.25141000
26.55999984	-80.86184000
26.59999984	-77.26676000
26.63999984	-77.26676000
26.67999984	-75.47227000
26.71999984	-79.06125000
26.75999984	-77.26676000
26.79999984	-77.26676000
26.83999984	-73.67168000
26.87999984	-71.87719000
26.91999984	-66.48762000
26.95999984	-62.89254000
26.99999984	-61.09195000
27.03999984	-59.29746000
27.07999984	-57.50298000
27.11999984	-57.50298000
27.15999983	-55.70238000
27.19999983	-52.10730000
27.23999983	-46.71774000
27.27999983	-43.12265000
27.31999983	-35.93859000
27.35999983	-26.95395000
27.39999983	-14.37422000
27.43999983	0.00000000
27.47999983	19.76379000
27.51999983	41.32816000
27.55999983	64.68703000
27.59999983	86.25141000
27.63999983	111.41090000
27.67999983	132.97520000
27.71999983	150.94450000
27.75999983	158.12860000
27.79999983	140.15930000
27.83999983	123.99060000
27.87999983	122.19000000
27.91999983	132.97520000
27.95999983	131.17470000
27.99999983	131.17470000
28.03999983	143.75440000
28.07999983	158.12860000
28.11999983	159.92920000
28.15999983	136.56420000
28.19999983	111.41090000
28.23999983	93.44157000
28.27999983	84.45692000
28.31999983	70.07660000
28.35999983	48.51222000
28.39999983	28.74844000
28.43999983	17.96930000
28.47999983	7.18405700
28.51999983	-12.57363000
28.55999983	-41.32816000
28.59999983	-64.68703000
28.63999983	-79.06125000
28.67999983	-88.04590000
28.71999983	-98.83114000
28.75999983	-111.41090000
28.79999982	-116.80040000
28.83999982	-116.80040000
28.87999982	-106.01520000
28.91999982	-107.81580000
28.95999982	-84.45692000
28.99999982	-75.47227000
29.03999982	-59.29746000
29.07999982	-53.90789000
29.11999982	-43.12265000
29.15999982	-46.71774000
29.19999982	-57.50298000
29.23999982	-66.48762000
29.27999982	-73.67168000
29.31999982	-84.45692000
29.35999982	-95.23605000
29.39999982	-104.22070000
29.43999982	-104.22070000
29.47999982	-97.03055000
29.51999982	-88.04590000
29.55999982	-79.06125000
29.59999982	-68.28211000
29.63999982	-57.50298000
29.67999982	-50.31281000
29.71999982	-43.12265000
29.75999982	-39.52757000
29.79999982	-32.34352000
29.83999982	-25.15336000
29.87999982	-8.98464900
29.91999982	5.38956800
29.95999982	26.95395000
29.99999982	46.71774000
30.03999982	68.28211000
30.07999982	89.84650000
30.11999982	107.81580000
30.15999982	125.78510000
30.19999982	141.95990000
30.23999982	152.73900000
30.27999982	163.51820000
30.31999982	156.33410000
30.35999982	149.14400000
30.39999982	136.56420000
30.43999982	129.38020000
30.47999981	122.19000000
30.51999981	115.00600000
30.55999981	109.61030000
30.59999981	106.01520000
30.63999981	100.62560000
30.67999981	98.83114000
30.71999981	97.03055000
30.75999981	93.44157000
30.79999981	86.25141000
30.83999981	75.47227000
30.87999981	64.68703000
30.91999981	48.51222000
30.95999981	26.95395000
30.99999981	5.38956800
31.03999981	-14.37422000
31.07999981	-34.13800000
31.11999981	-53.90789000
31.15999981	-71.87719000
31.19999981	-86.25141000
31.23999981	-100.62560000
31.27999981	-111.41090000
31.31999981	-116.80040000
31.35999981	-118.59490000
31.39999981	-113.20540000
31.43999981	-109.61030000
31.47999981	-89.84650000
31.51999981	-77.26676000
31.55999981	-64.68703000
31.59999981	-62.89254000
31.63999981	-61.09195000
31.67999981	-61.09195000
31.71999981	-66.48762000
31.75999981	-70.07660000
31.79999981	-73.67168000
31.83999981	-77.26676000
31.87999981	-80.86184000
31.91999981	-82.65633000
31.95999981	-82.65633000
31.99999981	-80.86184000
32.03999981	-77.26676000
32.07999981	-71.87719000
32.11999980	-64.68703000
32.15999980	-57.50298000
32.19999980	-52.10730000
32.23999980	-43.12265000
32.27999980	-35.93859000
32.31999980	-26.95395000
32.35999980	-16.16870000
32.39999980	-1.79448800
32.43999980	14.37422000
32.47999980	32.34352000
32.51999980	52.10730000
32.55999980	73.67168000
32.59999980	95.23605000
32.63999980	118.59490000
32.67999980	140.15930000
32.71999980	154.53350000
32.75999980	168.91380000
32.79999980	167.11330000
32.83999980	159.92920000
32.87999980	145.54890000
32.91999980	136.56420000
32.95999980	127.57960000
32.99999980	118.59490000
33.03999980	113.20540000
33.07999980	107.81580000
33.11999980	102.42620000
33.15999980	98.83114000
33.19999980	93.44157000
33.23999980	89.84650000
33.27999980	86.25141000
33.31999980	79.06125000
33.35999980	70.07660000
33.39999980	55.70238000
33.43999980	35.93859000
33.47999980	16.16870000
33.51999980	-5.38956800
33.55999980	-26.95395000
33.59999980	-48.51222000
33.63999980	-66.48762000
33.67999980	-80.86184000
33.71999980	-95.23605000
33.75999979	-106.01520000
33.79999979	-113.20540000
33.83999979	-115.00600000
33.87999979	-115.00600000
33.91999979	-111.41090000
33.95999979	-109.61030000
33.99999979	-118.59490000
34.03999979	-107.81580000
34.07999979	-95.23605000
34.11999979	-97.03055000
34.15999979	-100.62560000
34.19999979	-98.83114000
34.23999979	-93.44157000
34.27999979	-89.84650000
34.31999979	-93.44157000
34.35999979	-93.44157000
34.39999979	-91.64098000
34.43999979	-89.84650000
34.47999979	-89.84650000
34.51999979	-86.25141000
34.55999979	-82.65633000
34.59999979	-80.86184000
34.63999979	-73.67168000
34.67999979	-68.28211000
34.71999979	-57.50298000
34.75999979	-48.51222000
34.79999979	-35.93859000
34.83999979	-21.55827000
34.87999979	-7.18405700
34.91999979	8.98464900
34.95999979	25.15336000
34.99999979	41.32816000
35.03999979	57.50298000
35.07999979	71.87719000
35.11999979	84.45692000
35.15999979	100.62560000
35.19999979	111.41090000
35.23999979	122.19000000
35.27999979	134.76970000
35.31999979	140.15930000
35.35999979	143.75440000
35.39999978	141.95990000
35.43999978	136.56420000
35.47999978	127.57960000
35.51999978	118.59490000
35.55999978	113.20540000
35.59999978	107.81580000
35.63999978	102.42620000
35.67999978	95.23605000
35.71999978	89.84650000
35.75999978	82.65633000
35.79999978	75.47227000
35.83999978	64.68703000
35.87999978	53.90789000
35.91999978	41.32816000
35.95999978	26.95395000
35.99999978	12.57363000
36.03999978	-3.58897700
36.07999978	-21.55827000
36.11999978	-37.73308000
36.15999978	-53.90789000
36.19999978	-68.28211000
36.23999978	-80.86184000
36.27999978	-91.64098000
36.31999978	-100.62560000
36.35999978	-109.61030000
36.39999978	-116.80040000
36.43999978	-116.80040000
36.47999978	-115.00600000
36.51999978	-118.59490000
36.55999978	-100.62560000
36.59999978	-93.44157000
36.63999978	-79.06125000
36.67999978	-80.86184000
36.71999978	-79.06125000
36.75999978	-79.06125000
36.79999978	-80.86184000
36.83999978	-84.45692000
36.87999978	-86.25141000
36.91999978	-89.84650000
36.95999978	-91.64098000
36.99999978	-93.44157000
37.03999977	-93.44157000
37.07999977	-89.84650000
37.11999977	-86.25141000
37.15999977	-80.86184000
37.19999977	-71.87719000
37.23999977	-62.89254000
37.27999977	-53.90789000
37.31999977	-43.12265000
37.35999977	-34.13800000
37.39999977	-21.55827000
37.43999977	-10.77914000
37.47999977	7.18405700
37.51999977	25.15336000
37.55999977	44.92325000
37.59999977	64.68703000
37.63999977	86.25141000
37.67999977	109.61030000
37.71999977	132.97520000
37.75999977	149.14400000
37.79999977	167.11330000
37.83999977	168.91380000
37.87999977	165.31880000
37.91999977	150.94450000
37.95999977	140.15930000
37.99999977	131.17470000
38.03999977	122.19000000
38.07999977	115.00600000
38.11999977	107.81580000
38.15999977	104.22070000
38.19999977	98.83114000
38.23999977	93.44157000
38.27999977	89.84650000
38.31999977	86.25141000
38.35999977	80.86184000
38.39999977	73.67168000
38.43999977	61.09195000
38.47999977	44.92325000
38.51999977	25.15336000
38.55999977	1.79448800
38.59999977	-21.55827000
38.63999977	-43.12265000
38.67999976	-62.89254000
38.71999976	-79.06125000
38.75999976	-93.44157000
38.79999976	-102.42620000
38.83999976	-111.41090000
38.87999976	-120.39550000
38.91999976	-118.59490000
38.95999976	-111.41090000
38.99999976	-104.22070000
39.03999976	-97.03055000
39.07999976	-89.84650000
39.11999976	-88.04590000
39.15999976	-86.25141000
39.19999976	-82.65633000
39.23999976	-82.65633000
39.27999976	-84.45692000
39.31999976	-86.25141000
39.35999976	-89.84650000
39.39999976	-91.64098000
39.43999976	-93.44157000
39.47999976	-91.64098000
39.51999976	-88.04590000
39.55999976	-80.86184000
39.59999976	-75.47227000
39.63999976	-70.07660000
39.67999976	-64.68703000
39.71999976	-57.50298000
39.75999976	-52.10730000
39.79999976	-43.12265000
39.83999976	-35.93859000
39.87999976	-28.74844000
39.91999976	-17.96930000
39.95999976	-8.98464900
39.99999976	3.58897700
40.03999976	16.16870000
40.07999976	34.13800000
40.11999976	55.70238000
40.15999976	75.47227000
40.19999976	97.03055000
40.23999976	116.80040000
40.27999976	136.56420000
40.31999975	150.94450000
40.35999975	161.72370000
40.39999975	161.72370000
40.43999975	156.33410000
40.47999975	140.15930000
40.51999975	129.38020000
40.55999975	120.39550000
40.59999975	115.00600000
40.63999975	107.81580000
40.67999975	100.62560000
40.71999975	97.03055000
40.75999975	93.44157000
40.79999975	88.04590000
40.83999975	80.86184000
40.87999975	73.67168000
40.91999975	62.89254000
40.95999975	50.31281000
40.99999975	35.93859000
41.03999975	16.16870000
41.07999975	-5.38956800
41.11999975	-25.15336000
41.15999975	-43.12265000
41.19999975	-64.68703000
41.23999975	-79.06125000
41.27999975	-91.64098000
41.31999975	-100.62560000
41.35999975	-107.81580000
41.39999975	-111.41090000
41.43999975	-113.20540000
41.47999975	-111.41090000
41.51999975	-109.61030000
41.55999975	-102.42620000
41.59999975	-100.62560000
41.63999975	-84.45692000
41.67999975	-79.06125000
41.71999975	-64.68703000
41.75999975	-66.48762000
41.79999975	-66.48762000
41.83999975	-70.07660000
41.87999975	-71.87719000
41.91999975	-77.26676000
41.95999974	-82.65633000
41.99999974	-84.45692000
42.03999974	-84.45692000
42.07999974	-84.45692000
42.11999974	-82.65633000
42.15999974	-79.06125000
42.19999974	-73.67168000
42.23999974	-68.28211000
42.27999974	-59.29746000
42.31999974	-50.31281000
42.35999974	-41.32816000
42.39999974	-30.54292000
42.43999974	-21.55827000
42.47999974	-7.18405700
42.51999974	7.18405700
42.55999974	25.15336000
42.59999974	44.92325000
42.63999974	64.68703000
42.67999974	86.25141000
42.71999974	109.61030000
42.75999974	132.97520000
42.79999974	150.94450000
42.83999974	167.11330000
42.87999974	170.70830000
42.91999974	163.51820000
42.95999974	152.73900000
42.99999974	141.95990000
43.03999974	132.97520000
43.07999974	122.19000000
43.11999974	113.20540000
43.15999974	106.01520000
43.19999974	100.62560000
43.23999974	95.23605000
43.27999974	89.84650000
43.31999974	84.45692000
43.35999974	79.06125000
43.39999974	71.87719000
43.43999974	61.09195000
43.47999974	46.71774000
43.51999974	28.74844000
43.55999974	5.38956800
43.59999974	-14.37422000
43.63999973	-37.73308000
43.67999973	-57.50298000
43.71999973	-73.67168000
43.75999973	-86.25141000
43.79999973	-95.23605000
43.83999973	-115.00600000
43.87999973	-116.80040000
43.91999973	-106.01520000
43.95999973	-102.42620000
43.99999973	-102.42620000
44.03999973	-97.03055000
44.07999973	-88.04590000
44.11999973	-79.06125000
44.15999973	-79.06125000
44.19999973	-79.06125000
44.23999973	-79.06125000
44.27999973	-79.06125000
44.31999973	-82.65633000
44.35999973	-86.25141000
44.39999973	-88.04590000
44.43999973	-93.44157000
44.47999973	-93.44157000
44.51999973	-93.44157000
44.55999973	-91.64098000
44.59999973	-89.84650000
44.63999973	-84.45692000
44.67999973	-75.47227000
44.71999973	-66.48762000
44.75999973	-59.29746000
44.79999973	-48.51222000
44.83999973	-37.73308000
44.87999973	-25.15336000
44.91999973	-14.37422000
44.95999973	-1.79448800
44.99999973	12.57363000
45.03999973	26.95395000
45.07999973	43.12265000
45.11999973	59.29746000
45.15999973	75.47227000
45.19999973	93.44157000
45.23999973	111.41090000
45.27999972	125.78510000
45.31999972	138.36480000
45.35999972	150.94450000
45.39999972	158.12860000
45.43999972	154.53350000
45.47999972	141.95990000
45.51999972	132.97520000
45.55999972	125.78510000
45.59999972	116.80040000
45.63999972	109.61030000
45.67999972	104.22070000
45.71999972	100.62560000
45.75999972	95.23605000
45.79999972	89.84650000
45.83999972	82.65633000
45.87999972	75.47227000
45.91999972	66.48762000
45.95999972	55.70238000
45.99999972	41.32816000
46.03999972	25.15336000
46.07999972	5.38956800
46.11999972	-14.37422000
46.15999972	-34.13800000
46.19999972	-52.10730000
46.23999972	-70.07660000
46.27999972	-82.65633000
46.31999972	-93.44157000
46.35999972	-102.42620000
46.39999972	-109.61030000
46.43999972	-113.20540000
46.47999972	-107.81580000
46.51999972	-109.61030000
46.55999972	-84.45692000
46.59999972	-77.26676000
46.63999972	-59.29746000
46.67999972	-64.68703000
46.71999972	-61.09195000
46.75999972	-64.68703000
46.79999972	-68.28211000
46.83999972	-71.87719000
46.87999972	-75.47227000
46.91999971	-80.86184000
46.95999971	-82.65633000
46.99999971	-86.25141000
47.03999971	-86.25141000
47.07999971	-84.45692000
47.11999971	-80.86184000
47.15999971	-75.47227000
47.19999971	-66.48762000
47.23999971	-57.50298000
47.27999971	-52.10730000
47.31999971	-43.12265000
47.35999971	-35.93859000
47.39999971	-26.95395000
47.43999971	-17.96930000
47.47999971	-7.18405700
47.51999971	8.98464900
47.55999971	26.95395000
47.59999971	46.71774000
47.63999971	68.28211000
47.67999971	91.64098000
47.71999971	115.00600000
47.75999971	138.36480000
47.79999971	156.33410000
47.83999971	172.50890000
47.87999971	170.70830000
47.91999971	165.31880000
47.95999971	149.14400000
47.99999971	141.95990000
48.03999971	132.97520000
48.07999971	122.19000000
48.11999971	115.00600000
48.15999971	109.61030000
48.19999971	104.22070000
48.23999971	100.62560000
48.27999971	93.44157000
48.31999971	93.44157000
48.35999971	88.04590000
48.39999971	82.65633000
48.43999971	75.47227000
48.47999971	61.09195000
48.51999971	41.32816000
48.55999970	17.96930000
48.59999970	-5.38956800
48.63999970	-26.95395000
48.67999970	-46.71774000
48.71999970	-70.07660000
48.75999970	-86.25141000
48.79999970	-97.03055000
48.83999970	-102.42620000
48.87999970	-109.61030000
48.91999970	-111.41090000
48.95999970	-102.42620000
48.99999970	-91.64098000
49.03999970	-77.26676000
49.07999970	-70.07660000
49.11999970	-64.68703000
49.15999970	-64.68703000
49.19999970	-64.68703000
49.23999970	-66.48762000
49.27999970	-71.87719000
49.31999970	-73.67168000
49.35999970	-77.26676000
49.39999970	-80.86184000
49.43999970	-82.65633000
49.47999970	-84.45692000
49.51999970	-84.45692000
49.55999970	-80.86184000
49.59999970	-73.67168000
49.63999970	-66.48762000
49.67999970	-61.09195000
49.71999970	-52.10730000
49.75999970	-46.71774000
49.79999970	-43.12265000
49.83999970	-35.93859000
49.87999970	-28.74844000
49.91999970	-17.96930000
49.95999970	-7.18405700
49.99999970	7.18405700
50.03999970	25.15336000
50.07999970	44.92325000
50.11999970	64.68703000
50.15999970	86.25141000
50.19999969	106.01520000
50.23999969	125.78510000
50.27999969	143.75440000
50.31999969	152.73900000
50.35999969	165.31880000
50.39999969	159.92920000
50.43999969	152.73900000
50.47999969	136.56420000
50.51999969	131.17470000
50.55999969	123.99060000
50.59999969	116.80040000
50.63999969	111.41090000
50.67999969	107.81580000
50.71999969	104.22070000
50.75999969	100.62560000
50.79999969	95.23605000
50.83999969	91.64098000
50.87999969	84.45692000
50.91999969	75.47227000
50.95999969	62.89254000
50.99999969	46.71774000
51.03999969	25.15336000
51.07999969	1.79448800
51.11999969	-17.96930000
51.15999969	-39.52757000
51.19999969	-57.50298000
51.23999969	-73.67168000
51.27999969	-88.04590000
51.31999969	-98.83114000
51.35999969	-107.81580000
51.39999969	-111.41090000
51.43999969	-107.81580000
51.47999969	-98.83114000
51.51999969	-88.04590000
51.55999969	-73.67168000
51.59999969	-70.07660000
51.63999969	-66.48762000
51.67999969	-66.48762000
51.71999969	-66.48762000
51.75999969	-68.28211000
51.79999969	-71.87719000
51.83999968	-73.67168000
51.87999968	-77.26676000
51.91999968	-80.86184000
51.95999968	-82.65633000
51.99999968	-84.45692000
52.03999968	-82.65633000
52.07999968	-79.06125000
52.11999968	-73.67168000
52.15999968	-64.68703000
52.19999968	-57.50298000
52.23999968	-52.10730000
52.27999968	-44.92325000
52.31999968	-37.73308000
52.35999968	-30.54292000
52.39999968	-21.55827000
52.43999968	-10.77914000
52.47999968	5.38956800
52.51999968	21.55827000
52.55999968	39.52757000
52.59999968	61.09195000
52.63999968	79.06125000
52.67999968	100.62560000
52.71999968	122.19000000
52.75999968	141.95990000
52.79999968	156.33410000
52.83999968	167.11330000
52.87999968	163.51820000
52.91999968	156.33410000
52.95999968	141.95990000
52.99999968	134.76970000
53.03999968	125.78510000
53.07999968	118.59490000
53.11999968	111.41090000
53.15999968	106.01520000
53.19999968	104.22070000
53.23999968	98.83114000
53.27999968	95.23605000
53.31999968	93.44157000
53.35999968	88.04590000
53.39999968	80.86184000
53.43999968	71.87719000
53.47999967	57.50298000
53.51999967	39.52757000
53.55999967	16.16870000
53.59999967	-5.38956800
53.63999967	-25.15336000
53.67999967	-48.51222000
53.71999967	-77.26676000
53.75999967	-82.65633000
53.79999967	-88.04590000
53.83999967	-106.01520000
53.87999967	-115.00600000
53.91999967	-118.59490000
53.95999967	-113.20540000
53.99999967	-107.81580000
54.03999967	-97.03055000
54.07999967	-91.64098000
54.11999967	-66.48762000
54.15999967	-62.89254000
54.19999967	-50.31281000
54.23999967	-55.70238000
54.27999967	-55.70238000
54.31999967	-62.89254000
54.35999967	-64.68703000
54.39999967	-70.07660000
54.43999967	-73.67168000
54.47999967	-79.06125000
54.51999967	-79.06125000
54.55999967	-79.06125000
54.59999967	-75.47227000
54.63999967	-71.87719000
54.67999967	-66.48762000
54.71999967	-59.29746000
54.75999967	-50.31281000
54.79999967	-43.12265000
54.83999967	-35.93859000
54.87999967	-28.74844000
54.91999967	-17.96930000
54.95999967	-7.18405700
54.99999967	8.98464900
55.03999967	26.95395000
55.07999967	48.51222000
55.11999967	70.07660000
55.15999966	88.04590000
55.19999966	113.20540000
55.23999966	138.36480000
55.27999966	154.53350000
55.31999966	167.11330000
55.35999966	168.91380000
55.39999966	165.31880000
55.43999966	156.33410000
55.47999966	152.73900000
55.51999966	159.92920000
55.55999966	158.12860000
55.59999966	140.15930000
55.63999966	115.00600000
55.67999966	104.22070000
55.71999966	88.04590000
55.75999966	62.89254000
55.79999966	43.12265000
55.83999966	34.13800000
55.87999966	43.12265000
55.91999966	52.10730000
55.95999966	50.31281000
55.99999966	34.13800000
56.03999966	21.55827000
56.07999966	12.57363000
56.11999966	-5.38956800
56.15999966	-32.34352000
56.19999966	-59.29746000
56.23999966	-73.67168000
56.27999966	-80.86184000
56.31999966	-89.84650000
56.35999966	-98.83114000
56.39999966	-102.42620000
56.43999966	-91.64098000
56.47999966	-80.86184000
56.51999966	-64.68703000
56.55999966	-62.89254000
56.59999966	-62.89254000
56.63999966	-66.48762000
56.67999966	-66.48762000
56.71999966	-71.87719000
56.75999966	-80.86184000
56.79999965	-91.64098000
56.83999965	-98.83114000
56.87999965	-100.62560000
56.91999965	-98.83114000
56.95999965	-95.23605000
56.99999965	-89.84650000
57.03999965	-80.86184000
57.07999965	-64.68703000
57.11999965	-52.10730000
57.15999965	-44.92325000
57.19999965	-43.12265000
57.23999965	-41.32816000
57.27999965	-39.52757000
57.31999965	-34.13800000
57.35999965	-28.74844000
57.39999965	-17.96930000
57.43999965	-3.58897700
57.47999965	14.37422000
57.51999965	32.34352000
57.55999965	50.31281000
57.59999965	68.28211000
57.63999965	86.25141000
57.67999965	102.42620000
57.71999965	118.59490000
57.75999965	132.97520000
57.79999965	143.75440000
57.83999965	152.73900000
57.87999965	152.73900000
57.91999965	149.14400000
57.95999965	138.36480000
57.99999965	132.97520000
58.03999965	127.57960000
58.07999965	122.19000000
58.11999965	115.00600000
58.15999965	111.41090000
58.19999965	107.81580000
58.23999965	104.22070000
58.27999965	100.62560000
58.31999965	95.23605000
58.35999965	88.04590000
58.39999965	77.26676000
58.43999964	64.68703000
58.47999964	59.29746000
58.51999964	57.50298000
58.55999964	35.93859000
58.59999964	0.00000000
58.63999964	-28.74844000
58.67999964	-50.31281000
58.71999964	-80.86184000
58.75999964	-116.80040000
58.79999964	-150.94450000
58.83999964	-158.12860000
58.87999964	-141.95990000
58.91999964	-123.99060000
58.95999964	-100.62560000
58.99999964	-86.25141000
59.03999964	-61.09195000
59.07999964	-46.71774000
59.11999964	-37.73308000
59.15999964	-46.71774000
59.19999964	-59.29746000
59.23999964	-61.09195000
59.27999964	-59.29746000
59.31999964	-64.68703000
59.35999964	-71.87719000
59.39999964	-80.86184000
59.43999964	-82.65633000
59.47999964	-79.06125000
59.51999964	-77.26676000
59.55999964	-75.47227000
59.59999964	-71.87719000
59.63999964	-66.48762000
59.67999964	-61.09195000
59.71999964	-57.50298000
59.75999964	-55.70238000
59.79999964	-52.10730000
59.83999964	-50.31281000
59.87999964	-35.93859000
59.91999964	-19.76379000
59.95999964	1.79448800
59.99999964	21.55827000
60.03999964	48.51222000
60.07999963	75.47227000
60.11999963	100.62560000
60.15999963	116.80040000
60.19999963	129.38020000
60.23999963	143.75440000
60.27999963	152.73900000
60.31999963	159.92920000
60.35999963	150.94450000
60.39999963	147.34950000
60.43999963	136.56420000
60.47999963	134.76970000
60.51999963	127.57960000
60.55999963	120.39550000
60.59999963	113.20540000
60.63999963	107.81580000
60.67999963	102.42620000
60.71999963	95.23605000
60.75999963	89.84650000
60.79999963	86.25141000
60.83999963	84.45692000
60.87999963	80.86184000
60.91999963	73.67168000
60.95999963	62.89254000
60.99999963	46.71774000
61.03999963	28.74844000
61.07999963	7.18405700
61.11999963	-14.37422000
61.15999963	-35.93859000
61.19999963	-57.50298000
61.23999963	-73.67168000
61.27999963	-88.04590000
61.31999963	-100.62560000
61.35999963	-111.41090000
61.39999963	-115.00600000
61.43999963	-116.80040000
61.47999963	-115.00600000
61.51999963	-109.61030000
61.55999963	-100.62560000
61.59999963	-79.06125000
61.63999963	-71.87719000
61.67999963	-61.09195000
61.71999962	-70.07660000
61.75999962	-73.67168000
61.79999962	-84.45692000
61.83999962	-86.25141000
61.87999962	-93.44157000
61.91999962	-95.23605000
61.95999962	-95.23605000
61.99999962	-91.64098000
62.03999962	-89.84650000
62.07999962	-84.45692000
62.11999962	-79.06125000
62.15999962	-70.07660000
62.19999962	-61.09195000
62.23999962	-50.31281000
62.27999962	-41.32816000
62.31999962	-30.54292000
62.35999962	-19.76379000
62.39999962	-8.98464900
62.43999962	3.58897700
62.47999962	16.16870000
62.51999962	30.54292000
62.55999962	44.92325000
62.59999962	59.29746000
62.63999962	73.67168000
62.67999962	88.04590000
62.71999962	102.42620000
62.75999962	116.80040000
62.79999962	134.76970000
62.83999962	145.54890000
62.87999962	154.53350000
62.91999962	154.53350000
62.95999962	149.14400000
62.99999962	138.36480000
63.03999962	129.38020000
63.07999962	122.19000000
63.11999962	115.00600000
63.15999962	107.81580000
63.19999962	104.22070000
63.23999962	98.83114000
63.27999962	91.64098000
63.31999962	86.25141000
63.35999961	79.06125000
63.39999961	71.87719000
63.43999961	62.89254000
63.47999961	53.90789000
63.51999961	35.93859000
63.55999961	8.98464900
63.59999961	0.00000000
63.63999961	-10.77914000
63.67999961	-35.93859000
63.71999961	-55.70238000
63.75999961	-71.87719000
63.79999961	-82.65633000
63.83999961	-93.44157000
63.87999961	-104.22070000
63.91999961	-111.41090000
63.95999961	-104.22070000
63.99999961	-100.62560000
64.03999961	-93.44157000
64.07999961	-86.25141000
64.11999961	-80.86184000
64.15999961	-80.86184000
64.19999961	-80.86184000
64.23999961	-80.86184000
64.27999961	-82.65633000
64.31999961	-86.25141000
64.35999961	-88.04590000
64.39999961	-89.84650000
64.43999961	-93.44157000
64.47999961	-93.44157000
64.51999961	-93.44157000
64.55999961	-89.84650000
64.59999961	-84.45692000
64.63999961	-79.06125000
64.67999961	-71.87719000
64.71999961	-64.68703000
64.75999961	-55.70238000
64.79999961	-48.51222000
64.83999961	-39.52757000
64.87999961	-28.74844000
64.91999961	-17.96930000
64.95999961	-3.58897700
64.99999960	7.18405700
65.03999960	23.35887000
65.07999960	41.32816000
65.11999960	62.89254000
65.15999960	79.06125000
65.19999960	95.23605000
65.23999960	113.20540000
65.27999960	131.17470000
65.31999960	143.75440000
65.35999960	152.73900000
65.39999960	156.33410000
65.43999960	152.73900000
65.47999960	143.75440000
65.51999960	134.76970000
65.55999960	125.78510000
65.59999960	118.59490000
65.63999960	113.20540000
65.67999960	109.61030000
65.71999960	106.01520000
65.75999960	102.42620000
65.79999960	97.03055000
65.83999960	93.44157000
65.87999960	88.04590000
65.91999960	80.86184000
65.95999960	70.07660000
65.99999960	57.50298000
66.03999960	43.12265000
66.07999960	23.35887000
66.11999960	3.58897700
66.15999960	-17.96930000
66.19999960	-35.93859000
66.23999960	-55.70238000
66.27999960	-70.07660000
66.31999960	-84.45692000
66.35999960	-97.03055000
66.39999960	-106.01520000
66.43999960	-111.41090000
66.47999960	-115.00600000
66.51999960	-116.80040000
66.55999960	-109.61030000
66.59999960	-113.20540000
66.63999959	-93.44157000
66.67999959	-84.45692000
66.71999959	-70.07660000
66.75999959	-71.87719000
66.79999959	-66.48762000
66.83999959	-68.28211000
66.87999959	-70.07660000
66.91999959	-73.67168000
66.95999959	-77.26676000
66.99999959	-80.86184000
67.03999959	-82.65633000
67.07999959	-84.45692000
67.11999959	-82.65633000
67.15999959	-80.86184000
67.19999959	-77.26676000
67.23999959	-71.87719000
67.27999959	-62.89254000
67.31999959	-53.90789000
67.35999959	-43.12265000
67.39999959	-35.93859000
67.43999959	-23.35887000
67.47999959	-14.37422000
67.51999959	1.79448800
67.55999959	16.16870000
67.59999959	35.93859000
67.63999959	55.70238000
67.67999959	75.47227000
67.71999959	95.23605000
67.75999959	115.00600000
67.79999959	134.76970000
67.83999959	150.94450000
67.87999959	163.51820000
67.91999959	163.51820000
67.95999959	158.12860000
67.99999959	145.54890000
68.03999959	138.36480000
68.07999959	129.38020000
68.11999959	122.19000000
68.15999959	113.20540000
68.19999959	107.81580000
68.23999959	104.22070000
68.27999959	97.03055000
68.31999958	91.64098000
68.35999958	88.04590000
68.39999958	79.06125000
68.43999958	71.87719000
68.47999958	62.89254000
68.51999958	53.90789000
68.55999958	34.13800000
68.59999958	12.57363000
68.63999958	-8.98464900
68.67999958	-28.74844000
68.71999958	-50.31281000
68.75999958	-64.68703000
68.79999958	-80.86184000
68.83999958	-93.44157000
68.87999958	-100.62560000
68.91999958	-107.81580000
68.95999958	-100.62560000
68.99999958	-97.03055000
69.03999958	-86.25141000
69.07999958	-79.06125000
69.11999958	-73.67168000
69.15999958	-71.87719000
69.19999958	-71.87719000
69.23999958	-73.67168000
69.27999958	-75.47227000
69.31999958	-79.06125000
69.35999958	-80.86184000
69.39999958	-86.25141000
69.43999958	-86.25141000
69.47999958	-89.84650000
69.51999958	-89.84650000
69.55999958	-88.04590000
69.59999958	-82.65633000
69.63999958	-75.47227000
69.67999958	-70.07660000
69.71999958	-62.89254000
69.75999958	-55.70238000
69.79999958	-48.51222000
69.83999958	-41.32816000
69.87999958	-35.93859000
69.91999958	-28.74844000
69.95999957	-19.76379000
69.99999957	-7.18405700
70.03999957	8.98464900
70.07999957	28.74844000
70.11999957	46.71774000
70.15999957	64.68703000
70.19999957	84.45692000
70.23999957	106.01520000
70.27999957	125.78510000
70.31999957	141.95990000
70.35999957	152.73900000
70.39999957	159.92920000
70.43999957	156.33410000
70.47999957	149.14400000
70.51999957	136.56420000
70.55999957	129.38020000
70.59999957	120.39550000
70.63999957	115.00600000
70.67999957	107.81580000
70.71999957	106.01520000
70.75999957	100.62560000
70.79999957	98.83114000
70.83999957	95.23605000
70.87999957	91.64098000
70.91999957	86.25141000
70.95999957	77.26676000
70.99999957	66.48762000
71.03999957	50.31281000
71.07999957	30.54292000
71.11999957	7.18405700
71.15999957	-12.57363000
71.19999957	-35.93859000
71.23999957	-53.90789000
71.27999957	-71.87719000
71.31999957	-86.25141000
71.35999957	-98.83114000
71.39999957	-107.81580000
71.43999957	-111.41090000
71.47999957	-106.01520000
71.51999957	-98.83114000
71.55999957	-86.25141000
71.59999956	-79.06125000
71.63999956	-73.67168000
71.67999956	-70.07660000
71.71999956	-70.07660000
71.75999956	-71.87719000
71.79999956	-71.87719000
71.83999956	-73.67168000
71.87999956	-79.06125000
71.91999956	-80.86184000
71.95999956	-84.45692000
71.99999956	-86.25141000
72.03999956	-86.25141000
72.07999956	-82.65633000
72.11999956	-79.06125000
72.15999956	-71.87719000
72.19999956	-66.48762000
72.23999956	-59.29746000
72.27999956	-52.10730000
72.31999956	-48.51222000
72.35999956	-41.32816000
72.39999956	-35.93859000
72.43999956	-26.95395000
72.47999956	-14.37422000
72.51999956	3.58897700
72.55999956	17.96930000
72.59999956	35.93859000
72.63999956	57.50298000
72.67999956	79.06125000
72.71999956	97.03055000
72.75999956	115.00600000
72.79999956	134.76970000
72.83999956	145.54890000
72.87999956	158.12860000
72.91999956	156.33410000
72.95999956	154.53350000
72.99999956	140.15930000
73.03999956	132.97520000
73.07999956	123.99060000
73.11999956	120.39550000
73.15999956	113.20540000
73.19999956	107.81580000
73.23999955	104.22070000
73.27999955	100.62560000
73.31999955	98.83114000
73.35999955	93.44157000
73.39999955	79.06125000
73.43999955	80.86184000
73.47999955	77.26676000
73.51999955	57.50298000
73.55999955	39.52757000
73.59999955	16.16870000
73.63999955	0.00000000
73.67999955	-19.76379000
73.71999955	-43.12265000
73.75999955	-59.29746000
73.79999955	-73.67168000
73.83999955	-89.84650000
73.87999955	-100.62560000
73.91999955	-109.61030000
73.95999955	-115.00600000
73.99999955	-116.80040000
74.03999955	-113.20540000
74.07999955	-109.61030000
74.11999955	-102.42620000
74.15999955	-97.03055000
74.19999955	-86.25141000
74.23999955	-82.65633000
74.27999955	-77.26676000
74.31999955	-75.47227000
74.35999955	-75.47227000
74.39999955	-73.67168000
74.43999955	-80.86184000
74.47999955	-80.86184000
74.51999955	-84.45692000
74.55999955	-86.25141000
74.59999955	-86.25141000
74.63999955	-84.45692000
74.67999955	-82.65633000
74.71999955	-79.06125000
74.75999955	-71.87719000
74.79999955	-64.68703000
74.83999955	-53.90789000
74.87999954	-43.12265000
74.91999954	-35.93859000
74.95999954	-21.55827000
74.99999954	-5.38956800
75.03999954	8.98464900
75.07999954	23.35887000
75.11999954	41.32816000
75.15999954	61.09195000
75.19999954	79.06125000
75.23999954	93.44157000
75.27999954	109.61030000
75.31999954	125.78510000
75.35999954	140.15930000
75.39999954	149.14400000
75.43999954	156.33410000
75.47999954	152.73900000
75.51999954	145.54890000
75.55999954	134.76970000
75.59999954	129.38020000
75.63999954	118.59490000
75.67999954	111.41090000
75.71999954	106.01520000
75.75999954	100.62560000
75.79999954	95.23605000
75.83999954	88.04590000
75.87999954	82.65633000
75.91999954	77.26676000
75.95999954	68.28211000
75.99999954	57.50298000
76.03999954	44.92325000
76.07999954	28.74844000
76.11999954	10.77914000
76.15999954	-7.18405700
76.19999954	-26.95395000
76.23999954	-44.92325000
76.27999954	-61.09195000
76.31999954	-77.26676000
76.35999954	-89.84650000
76.39999954	-100.62560000
76.43999954	-107.81580000
76.47999954	-113.20540000
76.51999953	-111.41090000
76.55999953	-109.61030000
76.59999953	-104.22070000
76.63999953	-100.62560000
76.67999953	-97.03055000
76.71999953	-93.44157000
76.75999953	-93.44157000
76.79999953	-91.64098000
76.83999953	-91.64098000
76.87999953	-91.64098000
76.91999953	-93.44157000
76.95999953	-93.44157000
76.99999953	-93.44157000
77.03999953	-95.23605000
77.07999953	-97.03055000
77.11999953	-93.44157000
77.15999953	-89.84650000
77.19999953	-86.25141000
77.23999953	-79.06125000
77.27999953	-71.87719000
77.31999953	-64.68703000
77.35999953	-57.50298000
77.39999953	-46.71774000
77.43999953	-34.13800000
77.47999953	-21.55827000
77.51999953	-7.18405700
77.55999953	7.18405700
77.59999953	25.15336000
77.63999953	43.12265000
77.67999953	57.50298000
77.71999953	75.47227000
77.75999953	91.64098000
77.79999953	107.81580000
77.83999953	122.19000000
77.87999953	136.56420000
77.91999953	147.34950000
77.95999953	152.73900000
77.99999953	150.94450000
78.03999953	145.54890000
78.07999953	134.76970000
78.11999953	125.78510000
78.15999952	118.59490000
78.19999952	113.20540000
78.23999952	104.22070000
78.27999952	98.83114000
78.31999952	95.23605000
78.35999952	93.44157000
78.39999952	86.25141000
78.43999952	79.06125000
78.47999952	68.28211000
78.51999952	59.29746000
78.55999952	46.71774000
78.59999952	32.34352000
78.63999952	14.37422000
78.67999952	-3.58897700
78.71999952	-21.55827000
78.75999952	-39.52757000
78.79999952	-57.50298000
78.83999952	-71.87719000
78.87999952	-86.25141000
78.91999952	-95.23605000
78.95999952	-104.22070000
78.99999952	-109.61030000
79.03999952	-109.61030000
79.07999952	-111.41090000
79.11999952	-106.01520000
79.15999952	-102.42620000
79.19999952	-100.62560000
79.23999952	-98.83114000
79.27999952	-95.23605000
79.31999952	-95.23605000
79.35999952	-95.23605000
79.39999952	-91.64098000
79.43999952	-89.84650000
79.47999952	-88.04590000
79.51999952	-89.84650000
79.55999952	-89.84650000
79.59999952	-88.04590000
79.63999952	-86.25141000
79.67999952	-84.45692000
79.71999952	-82.65633000
79.75999952	-79.06125000
79.79999952	-75.47227000
79.83999951	-68.28211000
79.87999951	-59.29746000
79.91999951	-52.10730000
79.95999951	-43.12265000
79.99999951	-32.34352000
80.03999951	-21.55827000
80.07999951	-3.58897700
80.11999951	14.37422000
80.15999951	30.54292000
80.19999951	50.31281000
80.23999951	70.07660000
80.27999951	89.84650000
80.31999951	107.81580000
80.35999951	125.78510000
80.39999951	141.95990000
80.43999951	154.53350000
80.47999951	161.72370000
80.51999951	158.12860000
80.55999951	149.14400000
80.59999951	136.56420000
80.63999951	129.38020000
80.67999951	122.19000000
80.71999951	115.00600000
80.75999951	109.61030000
80.79999951	102.42620000
80.83999951	98.83114000
80.87999951	91.64098000
80.91999951	86.25141000
80.95999951	80.86184000
80.99999951	73.67168000
81.03999951	64.68703000
81.07999951	52.10730000
81.11999951	35.93859000
81.15999951	17.96930000
81.19999951	-1.79448800
81.23999951	-21.55827000
81.27999951	-41.32816000
81.31999951	-57.50298000
81.35999951	-73.67168000
81.39999951	-86.25141000
81.43999951	-97.03055000
81.47999950	-104.22070000
81.51999950	-111.41090000
81.55999950	-113.20540000
81.59999950	-111.41090000
81.63999950	-106.01520000
81.67999950	-100.62560000
81.71999950	-93.44157000
81.75999950	-91.64098000
81.79999950	-88.04590000
81.83999950	-88.04590000
81.87999950	-86.25141000
81.91999950	-88.04590000
81.95999950	-88.04590000
81.99999950	-91.64098000
82.03999950	-93.44157000
82.07999950	-95.23605000
82.11999950	-97.03055000
82.15999950	-95.23605000
82.19999950	-93.44157000
82.23999950	-88.04590000
82.27999950	-79.06125000
82.31999950	-70.07660000
82.35999950	-59.29746000
82.39999950	-50.31281000
82.43999950	-43.12265000
82.47999950	-34.13800000
82.51999950	-23.35887000
82.55999950	-14.37422000
82.59999950	-1.79448800
82.63999950	10.77914000
82.67999950	26.95395000
82.71999950	43.12265000
82.75999950	59.29746000
82.79999950	77.26676000
82.83999950	95.23605000
82.87999950	115.00600000
82.91999950	131.17470000
82.95999950	147.34950000
82.99999950	158.12860000
83.03999950	161.72370000
83.07999950	154.53350000
83.11999949	143.75440000
83.15999949	136.56420000
83.19999949	122.19000000
83.23999949	107.81580000
83.27999949	111.41090000
83.31999949	111.41090000
83.35999949	98.83114000
83.39999949	89.84650000
83.43999949	82.65633000
83.47999949	82.65633000
83.51999949	73.67168000
83.55999949	62.89254000
83.59999949	52.10730000
83.63999949	37.73308000
83.67999949	19.76379000
83.71999949	0.00000000
83.75999949	-17.96930000
83.79999949	-37.73308000
83.83999949	-57.50298000
83.87999949	-71.87719000
83.91999949	-86.25141000
83.95999949	-97.03055000
83.99999949	-104.22070000
84.03999949	-107.81580000
84.07999949	-102.42620000
84.11999949	-97.03055000
84.15999949	-88.04590000
84.19999949	-82.65633000
84.23999949	-79.06125000
84.27999949	-77.26676000
84.31999949	-79.06125000
84.35999949	-79.06125000
84.39999949	-80.86184000
84.43999949	-82.65633000
84.47999949	-86.25141000
84.51999949	-88.04590000
84.55999949	-89.84650000
84.59999949	-89.84650000
84.63999949	-89.84650000
84.67999949	-89.84650000
84.71999949	-84.45692000
84.75999948	-75.47227000
84.79999948	-68.28211000
84.83999948	-64.68703000
84.87999948	-57.50298000
84.91999948	-50.31281000
84.95999948	-43.12265000
84.99999948	-37.73308000
85.03999948	-30.54292000
85.07999948	-19.76379000
85.11999948	-7.18405700
85.15999948	8.98464900
85.19999948	26.95395000
85.23999948	48.51222000
85.27999948	70.07660000
85.31999948	89.84650000
85.35999948	111.41090000
85.39999948	132.97520000
85.43999948	147.34950000
85.47999948	161.72370000
85.51999948	163.51820000
85.55999948	159.92920000
85.59999948	147.34950000
85.63999948	138.36480000
85.67999948	129.38020000
85.71999948	122.19000000
85.75999948	113.20540000
85.79999948	107.81580000
85.83999948	102.42620000
85.87999948	100.62560000
85.91999948	95.23605000
85.95999948	91.64098000
85.99999948	86.25141000
86.03999948	80.86184000
86.07999948	71.87719000
86.11999948	59.29746000
86.15999948	43.12265000
86.19999948	21.55827000
86.23999948	0.00000000
86.27999948	-21.55827000
86.31999948	-43.12265000
86.35999948	-61.09195000
86.39999947	-79.06125000
86.43999947	-91.64098000
86.47999947	-102.42620000
86.51999947	-109.61030000
86.55999947	-111.41090000
86.59999947	-113.20540000
86.63999947	-102.42620000
86.67999947	-97.03055000
86.71999947	-86.25141000
86.75999947	-82.65633000
86.79999947	-77.26676000
86.83999947	-75.47227000
86.87999947	-73.67168000
86.91999947	-77.26676000
86.95999947	-77.26676000
86.99999947	-80.86184000
87.03999947	-82.65633000
87.07999947	-86.25141000
87.11999947	-86.25141000
87.15999947	-86.25141000
87.19999947	-86.25141000
87.23999947	-80.86184000
87.27999947	-75.47227000
87.31999947	-70.07660000
87.35999947	-64.68703000
87.39999947	-57.50298000
87.43999947	-50.31281000
87.47999947	-43.12265000
87.51999947	-35.93859000
87.55999947	-26.95395000
87.59999947	-14.37422000
87.63999947	1.79448800
87.67999947	17.96930000
87.71999947	37.73308000
87.75999947	57.50298000
87.79999947	79.06125000
87.83999947	98.83114000
87.87999947	116.80040000
87.91999947	134.76970000
87.95999947	149.14400000
87.99999947	161.72370000
88.03999946	161.72370000
88.07999946	152.73900000
88.11999946	138.36480000
88.15999946	131.17470000
88.19999946	125.78510000
88.23999946	120.39550000
88.27999946	113.20540000
88.31999946	106.01520000
88.35999946	102.42620000
88.39999946	98.83114000
88.43999946	93.44157000
88.47999946	88.04590000
88.51999946	82.65633000
88.55999946	73.67168000
88.59999946	62.89254000
88.63999946	48.51222000
88.67999946	28.74844000
88.71999946	7.18405700
88.75999946	-12.57363000
88.79999946	-32.34352000
88.83999946	-50.31281000
88.87999946	-68.28211000
88.91999946	-82.65633000
88.95999946	-95.23605000
88.99999946	-104.22070000
89.03999946	-111.41090000
89.07999946	-115.00600000
89.11999946	-115.00600000
89.15999946	-111.41090000
89.19999946	-106.01520000
89.23999946	-100.62560000
89.27999946	-93.44157000
89.31999946	-89.84650000
89.35999946	-86.25141000
89.39999946	-84.45692000
89.43999946	-82.65633000
89.47999946	-82.65633000
89.51999946	-84.45692000
89.55999946	-86.25141000
89.59999946	-89.84650000
89.63999946	-93.44157000
89.67999945	-93.44157000
89.71999945	-89.84650000
89.75999945	-88.04590000
89.79999945	-86.25141000
89.83999945	-80.86184000
89.87999945	-71.87719000
89.91999945	-62.89254000
89.95999945	-53.90789000
89.99999945	-43.12265000
90.03999945	-30.54292000
90.07999945	-16.16870000
90.11999945	-1.79448800
90.15999945	12.57363000
90.19999945	28.74844000
90.23999945	46.71774000
90.27999945	62.89254000
90.31999945	79.06125000
90.35999945	97.03055000
90.39999945	111.41090000
90.43999945	125.78510000
90.47999945	140.15930000
90.51999945	149.14400000
90.55999945	154.53350000
90.59999945	150.94450000
90.63999945	143.75440000
90.67999945	132.97520000
90.71999945	125.78510000
90.75999945	115.00600000
90.79999945	111.41090000
90.83999945	106.01520000
90.87999945	100.62560000
90.91999945	95.23605000
90.95999945	89.84650000
90.99999945	82.65633000
91.03999945	75.47227000
91.07999945	68.28211000
91.11999945	57.50298000
91.15999945	43.12265000
91.19999945	28.74844000
91.23999945	10.77914000
91.27999945	-7.18405700
91.31999945	-26.95395000
91.35999944	-43.12265000
91.39999944	-61.09195000
91.43999944	-75.47227000
91.47999944	-88.04590000
91.51999944	-98.83114000
91.55999944	-107.81580000
91.59999944	-113.20540000
91.63999944	-115.00600000
91.67999944	-109.61030000
91.71999944	-107.81580000
91.75999944	-100.62560000
91.79999944	-97.03055000
91.83999944	-93.44157000
91.87999944	-93.44157000
91.91999944	-91.64098000
91.95999944	-91.64098000
91.99999944	-93.44157000
92.03999944	-93.44157000
92.07999944	-93.44157000
92.11999944	-97.03055000
92.15999944	-91.64098000
92.19999944	-89.84650000
92.23999944	-82.65633000
92.27999944	-80.86184000
92.31999944	-73.67168000
92.35999944	-70.07660000
92.39999944	-64.68703000
92.43999944	-57.50298000
92.47999944	-50.31281000
92.51999944	-43.12265000
92.55999944	-35.93859000
92.59999944	-25.15336000
92.63999944	-16.16870000
92.67999944	-3.58897700
92.71999944	12.57363000
92.75999944	28.74844000
92.79999944	48.51222000
92.83999944	70.07660000
92.87999944	89.84650000
92.91999944	111.41090000
92.95999944	132.97520000
92.99999943	150.94450000
93.03999943	159.92920000
93.07999943	156.33410000
93.11999943	163.51820000
93.15999943	156.33410000
93.19999943	140.15930000
93.23999943	127.57960000
93.27999943	116.80040000
93.31999943	113.20540000
93.35999943	107.81580000
93.39999943	100.62560000
93.43999943	97.03055000
93.47999943	91.64098000
93.51999943	86.25141000
93.55999943	79.06125000
93.59999943	73.67168000
93.63999943	64.68703000
93.67999943	50.31281000
93.71999943	34.13800000
93.75999943	14.37422000
93.79999943	-7.18405700
93.83999943	-28.74844000
93.87999943	-46.71774000
93.91999943	-64.68703000
93.95999943	-80.86184000
93.99999943	-91.64098000
94.03999943	-102.42620000
94.07999943	-107.81580000
94.11999943	-111.41090000
94.15999943	-109.61030000
94.19999943	-95.23605000
94.23999943	-84.45692000
94.27999943	-66.48762000
94.31999943	-57.50298000
94.35999943	-57.50298000
94.39999943	-71.87719000
94.43999943	-80.86184000
94.47999943	-95.23605000
94.51999943	-111.41090000
94.55999943	-118.59490000
94.59999943	-115.00600000
94.63999942	-109.61030000
94.67999942	-102.42620000
94.71999942	-93.44157000
94.75999942	-82.65633000
94.79999942	-73.67168000
94.83999942	-68.28211000
94.87999942	-59.29746000
94.91999942	-52.10730000
94.95999942	-46.71774000
94.99999942	-41.32816000
95.03999942	-32.34352000
95.07999942	-26.95395000
95.11999942	-21.55827000
95.15999942	-14.37422000
95.19999942	0.00000000
95.23999942	17.96930000
95.27999942	35.93859000
95.31999942	55.70238000
95.35999942	77.26676000
95.39999942	97.03055000
95.43999942	118.59490000
95.47999942	136.56420000
95.51999942	149.14400000
95.55999942	158.12860000
95.59999942	152.73900000
95.63999942	145.54890000
95.67999942	136.56420000
95.71999942	132.97520000
95.75999942	129.38020000
95.79999942	125.78510000
95.83999942	122.19000000
95.87999942	116.80040000
95.91999942	113.20540000
95.95999942	104.22070000
95.99999942	95.23605000
96.03999942	89.84650000
96.07999942	82.65633000
96.11999942	75.47227000
96.15999942	64.68703000
96.19999942	50.31281000
96.23999942	30.54292000
96.27999941	7.18405700
96.31999941	-14.37422000
96.35999941	-37.73308000
96.39999941	-59.29746000
96.43999941	-77.26676000
96.47999941	-93.44157000
96.51999941	-104.22070000
96.55999941	-113.20540000
96.59999941	-113.20540000
96.63999941	-107.81580000
96.67999941	-97.03055000
96.71999941	-86.25141000
96.75999941	-66.48762000
96.79999941	-64.68703000
96.83999941	-62.89254000
96.87999941	-64.68703000
96.91999941	-66.48762000
96.95999941	-70.07660000
96.99999941	-75.47227000
97.03999941	-79.06125000
97.07999941	-82.65633000
97.11999941	-88.04590000
97.15999941	-91.64098000
97.19999941	-93.44157000
97.23999941	-89.84650000
97.27999941	-86.25141000
97.31999941	-79.06125000
97.35999941	-71.87719000
97.39999941	-62.89254000
97.43999941	-57.50298000
97.47999941	-52.10730000
97.51999941	-46.71774000
97.55999941	-39.52757000
97.59999941	-32.34352000
97.63999941	-21.55827000
97.67999941	-3.58897700
97.71999941	14.37422000
97.75999941	32.34352000
97.79999941	53.90789000
97.83999941	75.47227000
97.87999941	95.23605000
97.91999940	113.20540000
97.95999940	129.38020000
97.99999940	145.54890000
98.03999940	158.12860000
98.07999940	159.92920000
98.11999940	158.12860000
98.15999940	141.95990000
98.19999940	134.76970000
98.23999940	127.57960000
98.27999940	120.39550000
98.31999940	113.20540000
98.35999940	109.61030000
98.39999940	106.01520000
98.43999940	100.62560000
98.47999940	100.62560000
98.51999940	95.23605000
98.55999940	91.64098000
98.59999940	86.25141000
98.63999940	77.26676000
98.67999940	64.68703000
98.71999940	46.71774000
98.75999940	26.95395000
98.79999940	3.58897700
98.83999940	-16.16870000
98.87999940	-37.73308000
98.91999940	-55.70238000
98.95999940	-71.87719000
98.99999940	-88.04590000
99.03999940	-98.83114000
99.07999940	-107.81580000
99.11999940	-109.61030000
99.15999940	-107.81580000
99.19999940	-98.83114000
99.23999940	-91.64098000
99.27999940	-84.45692000
99.31999940	-79.06125000
99.35999940	-73.67168000
99.39999940	-71.87719000
99.43999940	-71.87719000
99.47999940	-73.67168000
99.51999940	-77.26676000
99.55999939	-80.86184000
99.59999939	-84.45692000
99.63999939	-86.25141000
99.67999939	-86.25141000
99.71999939	-86.25141000
99.75999939	-86.25141000
99.79999939	-80.86184000
99.83999939	-73.67168000
99.87999939	-68.28211000
99.91999939	-62.89254000
99.95999939	-57.50298000
99.99999939	-50.31281000
100.03999939	-41.32816000
100.07999939	-32.34352000
100.11999939	-23.35887000
100.15999939	-10.77914000
100.19999939	3.58897700
100.23999939	19.76379000
100.27999939	37.73308000
100.31999939	57.50298000
100.35999939	77.26676000
100.39999939	95.23605000
100.43999939	115.00600000
100.47999939	129.38020000
100.51999939	143.75440000
100.55999939	154.53350000
100.59999939	159.92920000
100.63999939	156.33410000
100.67999939	147.34950000
100.71999939	136.56420000
100.75999939	129.38020000
100.79999939	122.19000000
100.83999939	115.00600000
100.87999939	111.41090000
100.91999939	106.01520000
100.95999939	100.62560000
100.99999939	97.03055000
101.03999939	91.64098000
101.07999939	86.25141000
101.11999939	79.06125000
101.15999939	70.07660000
101.19999938	57.50298000
101.23999938	39.52757000
101.27999938	19.76379000
101.31999938	0.00000000
101.35999938	-19.76379000
101.39999938	-39.52757000
101.43999938	-57.50298000
101.47999938	-73.67168000
101.51999938	-88.04590000
101.55999938	-98.83114000
101.59999938	-106.01520000
101.63999938	-109.61030000
101.67999938	-111.41090000
101.71999938	-100.62560000
101.75999938	-93.44157000
101.79999938	-82.65633000
101.83999938	-79.06125000
101.87999938	-75.47227000
101.91999938	-75.47227000
101.95999938	-75.47227000
101.99999938	-77.26676000
102.03999938	-79.06125000
102.07999938	-80.86184000
102.11999938	-84.45692000
102.15999938	-86.25141000
102.19999938	-86.25141000
102.23999938	-86.25141000
102.27999938	-82.65633000
102.31999938	-79.06125000
102.35999938	-73.67168000
102.39999938	-66.48762000
102.43999938	-61.09195000
102.47999938	-57.50298000
102.51999938	-52.10730000
102.55999938	-44.92325000
102.59999938	-35.93859000
102.63999938	-25.15336000
102.67999938	-10.77914000
102.71999938	5.38956800
102.75999938	23.35887000
102.79999938	43.12265000
102.83999937	66.48762000
102.87999937	75.47227000
102.91999937	95.23605000
102.95999937	125.78510000
102.99999937	145.54890000
103.03999937	150.94450000
103.07999937	158.12860000
103.11999937	158.12860000
103.15999937	154.53350000
103.19999937	140.15930000
103.23999937	129.38020000
103.27999937	123.99060000
103.31999937	118.59490000
103.35999937	113.20540000
103.39999937	107.81580000
103.43999937	106.01520000
103.47999937	100.62560000
103.51999937	95.23605000
103.55999937	93.44157000
103.59999937	89.84650000
103.63999937	79.06125000
103.67999937	68.28211000
103.71999937	53.90789000
103.75999937	35.93859000
103.79999937	14.37422000
103.83999937	-7.18405700
103.87999937	-26.95395000
103.91999937	-46.71774000
103.95999937	-64.68703000
103.99999937	-80.86184000
104.03999937	-93.44157000
104.07999937	-102.42620000
104.11999937	-109.61030000
104.15999937	-111.41090000
104.19999937	-111.41090000
104.23999937	-107.81580000
104.27999937	-104.22070000
104.31999937	-100.62560000
104.35999937	-97.03055000
104.39999937	-93.44157000
104.43999937	-95.23605000
104.47999937	-95.23605000
104.51999936	-91.64098000
104.55999936	-89.84650000
104.59999936	-93.44157000
104.63999936	-95.23605000
104.67999936	-95.23605000
104.71999936	-95.23605000
104.75999936	-93.44157000
104.79999936	-93.44157000
104.83999936	-89.84650000
104.87999936	-84.45692000
104.91999936	-79.06125000
104.95999936	-71.87719000
104.99999936	-64.68703000
105.03999936	-53.90789000
105.07999936	-43.12265000
105.11999936	-30.54292000
105.15999936	-17.96930000
105.19999936	-3.58897700
105.23999936	12.57363000
105.27999936	26.95395000
105.31999936	43.12265000
105.35999936	57.50298000
105.39999936	75.47227000
105.43999936	88.04590000
105.47999936	102.42620000
105.51999936	115.00600000
105.55999936	129.38020000
105.59999936	140.15930000
105.63999936	145.54890000
105.67999936	149.14400000
105.71999936	143.75440000
105.75999936	136.56420000
105.79999936	127.57960000
105.83999936	122.19000000
105.87999936	115.00600000
105.91999936	109.61030000
105.95999936	106.01520000
105.99999936	100.62560000
106.03999936	95.23605000
106.07999936	88.04590000
106.11999936	80.86184000
106.15999935	71.87719000
106.19999935	61.09195000
106.23999935	48.51222000
106.27999935	34.13800000
106.31999935	16.16870000
106.35999935	0.00000000
106.39999935	-19.76379000
106.43999935	-37.73308000
106.47999935	-53.90789000
106.51999935	-70.07660000
106.55999935	-84.45692000
106.59999935	-95.23605000
106.63999935	-104.22070000
106.67999935	-111.41090000
106.71999935	-115.00600000
106.75999935	-116.80040000
106.79999935	-115.00600000
106.83999935	-113.20540000
106.87999935	-107.81580000
106.91999935	-106.01520000
106.95999935	-102.42620000
106.99999935	-102.42620000
107.03999935	-100.62560000
107.07999935	-100.62560000
107.11999935	-98.83114000
107.15999935	-98.83114000
107.19999935	-98.83114000
107.23999935	-98.83114000
107.27999935	-100.62560000
107.31999935	-98.83114000
107.35999935	-95.23605000
107.39999935	-91.64098000
107.43999935	-86.25141000
107.47999935	-79.06125000
107.51999935	-71.87719000
107.55999935	-62.89254000
107.59999935	-52.10730000
107.63999935	-43.12265000
107.67999935	-30.54292000
107.71999935	-17.96930000
107.75999935	-8.98464900
107.79999934	7.18405700
107.83999934	26.95395000
107.87999934	46.71774000
107.91999934	62.89254000
107.95999934	79.06125000
107.99999934	93.44157000
108.03999934	113.20540000
108.07999934	129.38020000
108.11999934	143.75440000
108.15999934	152.73900000
108.19999934	158.12860000
108.23999934	154.53350000
108.27999934	143.75440000
108.31999934	132.97520000
108.35999934	127.57960000
108.39999934	118.59490000
108.43999934	111.41090000
108.47999934	106.01520000
108.51999934	100.62560000
108.55999934	95.23605000
108.59999934	89.84650000
108.63999934	82.65633000
108.67999934	77.26676000
108.71999934	68.28211000
108.75999934	57.50298000
108.79999934	43.12265000
108.83999934	28.74844000
108.87999934	8.98464900
108.91999934	-8.98464900
108.95999934	-28.74844000
108.99999934	-44.92325000
109.03999934	-62.89254000
109.07999934	-77.26676000
109.11999934	-88.04590000
109.15999934	-97.03055000
109.19999934	-104.22070000
109.23999934	-109.61030000
109.27999934	-115.00600000
109.31999934	-113.20540000
109.35999934	-113.20540000
109.39999934	-104.22070000
109.43999933	-100.62560000
109.47999933	-97.03055000
109.51999933	-97.03055000
109.55999933	-95.23605000
109.59999933	-93.44157000
109.63999933	-93.44157000
109.67999933	-98.83114000
109.71999933	-100.62560000
109.75999933	-100.62560000
109.79999933	-100.62560000
109.83999933	-100.62560000
109.87999933	-98.83114000
109.91999933	-95.23605000
109.95999933	-86.25141000
109.99999933	-79.06125000
110.03999933	-66.48762000
110.07999933	-59.29746000
110.11999933	-50.31281000
110.15999933	-43.12265000
110.19999933	-32.34352000
110.23999933	-23.35887000
110.27999933	-14.37422000
110.31999933	-1.79448800
110.35999933	12.57363000
110.39999933	28.74844000
110.43999933	44.92325000
110.47999933	62.89254000
110.51999933	80.86184000
110.55999933	100.62560000
110.59999933	118.59490000
110.63999933	138.36480000
110.67999933	154.53350000
110.71999933	163.51820000
110.75999933	161.72370000
110.79999933	156.33410000
110.83999933	143.75440000
110.87999933	132.97520000
110.91999933	123.99060000
110.95999933	115.00600000
110.99999933	109.61030000
111.03999933	102.42620000
111.07999932	98.83114000
111.11999932	91.64098000
111.15999932	86.25141000
111.19999932	80.86184000
111.23999932	73.67168000
111.27999932	64.68703000
111.31999932	52.10730000
111.35999932	35.93859000
111.39999932	17.96930000
111.43999932	-1.79448800
111.47999932	-21.55827000
111.51999932	-39.52757000
111.55999932	-57.50298000
111.59999932	-73.67168000
111.63999932	-86.25141000
111.67999932	-95.23605000
111.71999932	-104.22070000
111.75999932	-106.01520000
111.79999932	-104.22070000
111.83999932	-93.44157000
111.87999932	-86.25141000
111.91999932	-75.47227000
111.95999932	-71.87719000
111.99999932	-71.87719000
112.03999932	-71.87719000
112.07999932	-73.67168000
112.11999932	-79.06125000
112.15999932	-80.86184000
112.19999932	-84.45692000
112.23999932	-88.04590000
112.27999932	-89.84650000
112.31999932	-93.44157000
112.35999932	-93.44157000
112.39999932	-89.84650000
112.43999932	-84.45692000
112.47999932	-79.06125000
112.51999932	-71.87719000
112.55999932	-64.68703000
112.59999932	-59.29746000
112.63999932	-52.10730000
112.67999932	-43.12265000
112.71999931	-43.12265000
112.75999931	-43.12265000
112.79999931	-19.76379000
112.83999931	1.79448800
112.87999931	12.57363000
112.91999931	28.74844000
112.95999931	48.51222000
112.99999931	77.26676000
113.03999931	98.83114000
113.07999931	118.59490000
113.11999931	140.15930000
113.15999931	156.33410000
113.19999931	167.11330000
113.23999931	167.11330000
113.27999931	158.12860000
113.31999931	145.54890000
113.35999931	134.76970000
113.39999931	127.57960000
113.43999931	120.39550000
113.47999931	115.00600000
113.51999931	107.81580000
113.55999931	106.01520000
113.59999931	104.22070000
113.63999931	98.83114000
113.67999931	97.03055000
113.71999931	93.44157000
113.75999931	88.04590000
113.79999931	79.06125000
113.83999931	64.68703000
113.87999931	46.71774000
113.91999931	25.15336000
113.95999931	3.58897700
113.99999931	-17.96930000
114.03999931	-39.52757000
114.07999931	-59.29746000
114.11999931	-75.47227000
114.15999931	-89.84650000
114.19999931	-100.62560000
114.23999931	-111.41090000
114.27999931	-111.41090000
114.31999931	-115.00600000
114.35999930	-115.00600000
114.39999930	-109.61030000
114.43999930	-98.83114000
114.47999930	-95.23605000
114.51999930	-88.04590000
114.55999930	-84.45692000
114.59999930	-79.06125000
114.63999930	-79.06125000
114.67999930	-79.06125000
114.71999930	-80.86184000
114.75999930	-82.65633000
114.79999930	-84.45692000
114.83999930	-88.04590000
114.87999930	-89.84650000
114.91999930	-88.04590000
114.95999930	-88.04590000
114.99999930	-86.25141000
115.03999930	-82.65633000
115.07999930	-75.47227000
115.11999930	-68.28211000
115.15999930	-59.29746000
115.19999930	-46.71774000
115.23999930	-35.93859000
115.27999930	-21.55827000
115.31999930	-7.18405700
115.35999930	7.18405700
115.39999930	25.15336000
115.43999930	41.32816000
115.47999930	57.50298000
115.51999930	73.67168000
115.55999930	89.84650000
115.59999930	104.22070000
115.63999930	118.59490000
115.67999930	131.17470000
115.71999930	143.75440000
115.75999930	150.94450000
115.79999930	152.73900000
115.83999930	145.54890000
115.87999930	136.56420000
115.91999930	129.38020000
115.95999930	122.19000000
115.99999930	116.80040000
116.03999929	111.41090000
116.07999929	106.01520000
116.11999929	100.62560000
116.15999929	95.23605000
116.19999929	88.04590000
116.23999929	80.86184000
116.27999929	71.87719000
116.31999929	62.89254000
116.35999929	50.31281000
116.39999929	34.13800000
116.43999929	17.96930000
116.47999929	0.00000000
116.51999929	-19.76379000
116.55999929	-37.73308000
116.59999929	-55.70238000
116.63999929	-70.07660000
116.67999929	-82.65633000
116.71999929	-93.44157000
116.75999929	-102.42620000
116.79999929	-109.61030000
116.83999929	-113.20540000
116.87999929	-113.20540000
116.91999929	-109.61030000
116.95999929	-100.62560000
116.99999929	-93.44157000
117.03999929	-93.44157000
117.07999929	-111.41090000
117.11999929	-104.22070000
117.15999929	-82.65633000
117.19999929	-73.67168000
117.23999929	-77.26676000
117.27999929	-70.07660000
117.31999929	-46.71774000
117.35999929	-35.93859000
117.39999929	-48.51222000
117.43999929	-66.48762000
117.47999929	-80.86184000
117.51999929	-80.86184000
117.55999929	-79.06125000
117.59999929	-84.45692000
117.63999929	-89.84650000
117.67999928	-75.47227000
117.71999928	-53.90789000
117.75999928	-39.52757000
117.79999928	-35.93859000
117.83999928	-35.93859000
117.87999928	-17.96930000
117.91999928	3.58897700
117.95999928	26.95395000
117.99999928	44.92325000
118.03999928	64.68703000
118.07999928	86.25141000
118.11999928	113.20540000
118.15999928	138.36480000
118.19999928	154.53350000
118.23999928	170.70830000
118.27999928	172.50890000
118.31999928	174.30340000
118.35999928	163.51820000
118.39999928	156.33410000
118.43999928	143.75440000
118.47999928	129.38020000
118.51999928	118.59490000
118.55999928	109.61030000
118.59999928	98.83114000
118.63999928	86.25141000
118.67999928	79.06125000
118.71999928	79.06125000
118.75999928	79.06125000
118.79999928	77.26676000
118.83999928	71.87719000
118.87999928	61.09195000
118.91999928	44.92325000
118.95999928	21.55827000
118.99999928	-3.58897700
119.03999928	-28.74844000
119.07999928	-46.71774000
119.11999928	-66.48762000
119.15999928	-79.06125000
119.19999928	-86.25141000
119.23999928	-98.83114000
119.27999928	-102.42620000
119.31999927	-106.01520000
119.35999927	-106.01520000
119.39999927	-100.62560000
119.43999927	-102.42620000
119.47999927	-89.84650000
119.51999927	-86.25141000
119.55999927	-71.87719000
119.59999927	-71.87719000
119.63999927	-68.28211000
119.67999927	-70.07660000
119.71999927	-71.87719000
119.75999927	-71.87719000
119.79999927	-77.26676000
119.83999927	-80.86184000
119.87999927	-82.65633000
119.91999927	-84.45692000
119.95999927	-80.86184000
119.99999927	-79.06125000
120.03999927	-75.47227000
120.07999927	-71.87719000
120.11999927	-64.68703000
120.15999927	-57.50298000
120.19999927	-50.31281000
120.23999927	-41.32816000
120.27999927	-32.34352000
120.31999927	-21.55827000
120.35999927	-10.77914000
120.39999927	1.79448800
120.43999927	17.96930000
120.47999927	34.13800000
120.51999927	52.10730000
120.55999927	71.87719000
120.59999927	89.84650000
120.63999927	113.20540000
120.67999927	132.97520000
120.71999927	150.94450000
120.75999927	165.31880000
120.79999927	165.31880000
120.83999927	161.72370000
120.87999927	149.14400000
120.91999927	141.95990000
120.95999926	132.97520000
120.99999926	122.19000000
121.03999926	113.20540000
121.07999926	107.81580000
121.11999926	102.42620000
121.15999926	97.03055000
121.19999926	91.64098000
121.23999926	88.04590000
121.27999926	80.86184000
121.31999926	73.67168000
121.35999926	61.09195000
121.39999926	44.92325000
121.43999926	25.15336000
121.47999926	1.79448800
121.51999926	-19.76379000
121.55999926	-41.32816000
121.59999926	-61.09195000
121.63999926	-79.06125000
121.67999926	-91.64098000
121.71999926	-102.42620000
121.75999926	-109.61030000
121.79999926	-115.00600000
121.83999926	-115.00600000
121.87999926	-109.61030000
121.91999926	-100.62560000
121.95999926	-93.44157000
121.99999926	-82.65633000
122.03999926	-80.86184000
122.07999926	-77.26676000
122.11999926	-75.47227000
122.15999926	-79.06125000
122.19999926	-79.06125000
122.23999926	-82.65633000
122.27999926	-84.45692000
122.31999926	-88.04590000
122.35999926	-91.64098000
122.39999926	-93.44157000
122.43999926	-93.44157000
122.47999926	-89.84650000
122.51999926	-86.25141000
122.55999926	-79.06125000
122.59999925	-82.65633000
122.63999925	-71.87719000
122.67999925	-52.10730000
122.71999925	-43.12265000
122.75999925	-35.93859000
122.79999925	-28.74844000
122.83999925	-14.37422000
122.87999925	3.58897700
122.91999925	17.96930000
122.95999925	32.34352000
122.99999925	52.10730000
123.03999925	70.07660000
123.07999925	84.45692000
123.11999925	102.42620000
123.15999925	122.19000000
123.19999925	134.76970000
123.23999925	147.34950000
123.27999925	156.33410000
123.31999925	156.33410000
123.35999925	149.14400000
123.39999925	136.56420000
123.43999925	129.38020000
123.47999925	122.19000000
123.51999925	113.20540000
123.55999925	107.81580000
123.59999925	104.22070000
123.63999925	98.83114000
123.67999925	93.44157000
123.71999925	88.04590000
123.75999925	84.45692000
123.79999925	77.26676000
123.83999925	68.28211000
123.87999925	55.70238000
123.91999925	39.52757000
123.95999925	19.76379000
123.99999925	-1.79448800
124.03999925	-21.55827000
124.07999925	-41.32816000
124.11999925	-57.50298000
124.15999925	-73.67168000
124.19999925	-91.64098000
124.23999924	-100.62560000
124.27999924	-107.81580000
124.31999924	-115.00600000
124.35999924	-113.20540000
124.39999924	-111.41090000
124.43999924	-93.44157000
124.47999924	-84.45692000
124.51999924	-75.47227000
124.55999924	-73.67168000
124.59999924	-70.07660000
124.63999924	-70.07660000
124.67999924	-73.67168000
124.71999924	-77.26676000
124.75999924	-79.06125000
124.79999924	-82.65633000
124.83999924	-86.25141000
124.87999924	-88.04590000
124.91999924	-89.84650000
124.95999924	-89.84650000
124.99999924	-86.25141000
125.03999924	-80.86184000
125.07999924	-73.67168000
125.11999924	-66.48762000
125.15999924	-57.50298000
125.19999924	-50.31281000
125.23999924	-41.32816000
125.27999924	-32.34352000
125.31999924	-23.35887000
125.35999924	-14.37422000
125.39999924	0.00000000
125.43999924	14.37422000
125.47999924	32.34352000
125.51999924	53.90789000
125.55999924	75.47227000
125.59999924	97.03055000
125.63999924	120.39550000
125.67999924	141.95990000
125.71999924	158.12860000
125.75999924	172.50890000
125.79999924	167.11330000
125.83999924	161.72370000
125.87999923	147.34950000
125.91999923	140.15930000
125.95999923	129.38020000
125.99999923	120.39550000
126.03999923	115.00600000
126.07999923	109.61030000
126.11999923	104.22070000
126.15999923	100.62560000
126.19999923	95.23605000
126.23999923	93.44157000
126.27999923	89.84650000
126.31999923	82.65633000
126.35999923	73.67168000
126.39999923	61.09195000
126.43999923	41.32816000
126.47999923	19.76379000
126.51999923	-3.58897700
126.55999923	-25.15336000
126.59999923	-46.71774000
126.63999923	-66.48762000
126.67999923	-84.45692000
126.71999923	-97.03055000
126.75999923	-107.81580000
126.79999923	-115.00600000
126.83999923	-116.80040000
126.87999923	-116.80040000
126.91999923	-107.81580000
126.95999923	-98.83114000
126.99999923	-84.45692000
127.03999923	-71.87719000
127.07999923	-66.48762000
127.11999923	-66.48762000
127.15999923	-64.68703000
127.19999923	-68.28211000
127.23999923	-71.87719000
127.27999923	-77.26676000
127.31999923	-79.06125000
127.35999923	-82.65633000
127.39999923	-86.25141000
127.43999923	-86.25141000
127.47999923	-88.04590000
127.51999923	-82.65633000
127.55999922	-79.06125000
127.59999922	-66.48762000
127.63999922	-61.09195000
127.67999922	-53.90789000
127.71999922	-48.51222000
127.75999922	-39.52757000
127.79999922	-28.74844000
127.83999922	-19.76379000
127.87999922	-8.98464900
127.91999922	7.18405700
127.95999922	25.15336000
127.99999922	43.12265000
128.03999922	62.89254000
128.07999922	82.65633000
128.11999922	104.22070000
128.15999922	123.99060000
128.19999922	143.75440000
128.23999922	156.33410000
128.27999922	165.31880000
128.31999922	163.51820000
128.35999922	154.53350000
128.39999922	140.15930000
128.43999922	134.76970000
128.47999922	125.78510000
128.51999922	116.80040000
128.55999922	111.41090000
128.59999922	106.01520000
128.63999922	100.62560000
128.67999922	97.03055000
128.71999922	93.44157000
128.75999922	89.84650000
128.79999922	84.45692000
128.83999922	73.67168000
128.87999922	62.89254000
128.91999922	46.71774000
128.95999922	26.95395000
128.99999922	7.18405700
129.03999922	-12.57363000
129.07999922	-35.93859000
129.11999922	-57.50298000
129.15999922	-71.87719000
129.19999921	-86.25141000
129.23999921	-97.03055000
129.27999921	-106.01520000
129.31999921	-113.20540000
129.35999921	-115.00600000
129.39999921	-115.00600000
129.43999921	-107.81580000
129.47999921	-98.83114000
129.51999921	-86.25141000
129.55999921	-73.67168000
129.59999921	-66.48762000
129.63999921	-68.28211000
129.67999921	-66.48762000
129.71999921	-68.28211000
129.75999921	-71.87719000
129.79999921	-75.47227000
129.83999921	-80.86184000
129.87999921	-82.65633000
129.91999921	-86.25141000
129.95999921	-82.65633000
129.99999921	-84.45692000
130.03999921	-79.06125000
130.07999921	-75.47227000
130.11999921	-68.28211000
130.15999921	-59.29746000
130.19999921	-52.10730000
130.23999921	-43.12265000
130.27999921	-35.93859000
130.31999921	-25.15336000
130.35999921	-14.37422000
130.39999921	-3.58897700
130.43999921	12.57363000
130.47999921	32.34352000
130.51999921	50.31281000
130.55999921	71.87719000
130.59999921	91.64098000
130.63999921	115.00600000
130.67999921	136.56420000
130.71999921	150.94450000
130.75999921	167.11330000
130.79999921	167.11330000
130.83999920	161.72370000
130.87999920	149.14400000
130.91999920	141.95990000
130.95999920	131.17470000
130.99999920	122.19000000
131.03999920	115.00600000
131.07999920	111.41090000
131.11999920	106.01520000
131.15999920	98.83114000
131.19999920	95.23605000
131.23999920	91.64098000
131.27999920	88.04590000
131.31999920	80.86184000
131.35999920	71.87719000
131.39999920	57.50298000
131.43999920	39.52757000
131.47999920	17.96930000
131.51999920	-5.38956800
131.55999920	-28.74844000
131.59999920	-48.51222000
131.63999920	-68.28211000
131.67999920	-84.45692000
131.71999920	-97.03055000
131.75999920	-109.61030000
131.79999920	-115.00600000
131.83999920	-116.80040000
131.87999920	-118.59490000
131.91999920	-115.00600000
131.95999920	-113.20540000
131.99999920	-107.81580000
132.03999920	-100.62560000
132.07999920	-88.04590000
132.11999920	-80.86184000
132.15999920	-68.28211000
132.19999920	-70.07660000
132.23999920	-71.87719000
132.27999920	-73.67168000
132.31999920	-75.47227000
132.35999920	-80.86184000
132.39999920	-80.86184000
132.43999920	-89.84650000
132.47999919	-93.44157000
132.51999919	-80.86184000
132.55999919	-71.87719000
132.59999919	-77.26676000
132.63999919	-73.67168000
132.67999919	-68.28211000
132.71999919	-55.70238000
132.75999919	-44.92325000
132.79999919	-35.93859000
132.83999919	-25.15336000
132.87999919	-10.77914000
132.91999919	0.00000000
132.95999919	17.96930000
132.99999919	37.73308000
133.03999919	57.50298000
133.07999919	73.67168000
133.11999919	95.23605000
133.15999919	115.00600000
133.19999919	134.76970000
133.23999919	149.14400000
133.27999919	159.92920000
133.31999919	163.51820000
133.35999919	154.53350000
133.39999919	141.95990000
133.43999919	132.97520000
133.47999919	125.78510000
133.51999919	116.80040000
133.55999919	109.61030000
133.59999919	104.22070000
133.63999919	100.62560000
133.67999919	97.03055000
133.71999919	89.84650000
133.75999919	86.25141000
133.79999919	79.06125000
133.83999919	70.07660000
133.87999919	57.50298000
133.91999919	46.71774000
133.95999919	28.74844000
133.99999919	3.58897700
134.03999919	-17.96930000
134.07999919	-35.93859000
134.11999918	-57.50298000
134.15999918	-73.67168000
134.19999918	-88.04590000
134.23999918	-97.03055000
134.27999918	-106.01520000
134.31999918	-115.00600000
134.35999918	-115.00600000
134.39999918	-109.61030000
134.43999918	-100.62560000
134.47999918	-89.84650000
134.51999918	-77.26676000
134.55999918	-68.28211000
134.59999918	-68.28211000
134.63999918	-68.28211000
134.67999918	-70.07660000
134.71999918	-73.67168000
134.75999918	-77.26676000
134.79999918	-82.65633000
134.83999918	-86.25141000
134.87999918	-89.84650000
134.91999918	-93.44157000
134.95999918	-91.64098000
134.99999918	-89.84650000
135.03999918	-86.25141000
135.07999918	-80.86184000
135.11999918	-71.87719000
135.15999918	-62.89254000
135.19999918	-55.70238000
135.23999918	-46.71774000
135.27999918	-37.73308000
135.31999918	-28.74844000
135.35999918	-19.76379000
135.39999918	-8.98464900
135.43999918	5.38956800
135.47999918	23.35887000
135.51999918	43.12265000
135.55999918	62.89254000
135.59999918	84.45692000
135.63999918	107.81580000
135.67999918	129.38020000
135.71999918	149.14400000
135.75999917	163.51820000
135.79999917	170.70830000
135.83999917	163.51820000
135.87999917	150.94450000
135.91999917	140.15930000
135.95999917	132.97520000
135.99999917	122.19000000
136.03999917	115.00600000
136.07999917	107.81580000
136.11999917	104.22070000
136.15999917	100.62560000
136.19999917	95.23605000
136.23999917	91.64098000
136.27999917	89.84650000
136.31999917	84.45692000
136.35999917	77.26676000
136.39999917	66.48762000
136.43999917	50.31281000
136.47999917	28.74844000
136.51999917	3.58897700
136.55999917	-17.96930000
136.59999917	-39.52757000
136.63999917	-61.09195000
136.67999917	-79.06125000
136.71999917	-93.44157000
136.75999917	-104.22070000
136.79999917	-115.00600000
136.83999917	-116.80040000
136.87999917	-118.59490000
136.91999917	-111.41090000
136.95999917	-109.61030000
136.99999917	-89.84650000
137.03999917	-80.86184000
137.07999917	-66.48762000
137.11999917	-68.28211000
137.15999917	-64.68703000
137.19999917	-66.48762000
137.23999917	-68.28211000
137.27999917	-73.67168000
137.31999917	-80.86184000
137.35999917	-82.65633000
137.39999916	-86.25141000
137.43999916	-82.65633000
137.47999916	-84.45692000
137.51999916	-82.65633000
137.55999916	-80.86184000
137.59999916	-73.67168000
137.63999916	-66.48762000
137.67999916	-57.50298000
137.71999916	-52.10730000
137.75999916	-43.12265000
137.79999916	-34.13800000
137.83999916	-28.74844000
137.87999916	-16.16870000
137.91999916	-5.38956800
137.95999916	12.57363000
137.99999916	28.74844000
138.03999916	52.10730000
138.07999916	71.87719000
138.11999916	93.44157000
138.15999916	116.80040000
138.19999916	136.56420000
138.23999916	154.53350000
138.27999916	167.11330000
138.31999916	165.31880000
138.35999916	158.12860000
138.39999916	143.75440000
138.43999916	136.56420000
138.47999916	127.57960000
138.51999916	120.39550000
138.55999916	113.20540000
138.59999916	107.81580000
138.63999916	102.42620000
138.67999916	98.83114000
138.71999916	93.44157000
138.75999916	89.84650000
138.79999916	84.45692000
138.83999916	79.06125000
138.87999916	70.07660000
138.91999916	53.90789000
138.95999916	32.34352000
138.99999916	8.98464900
139.03999915	-14.37422000
139.07999915	-35.93859000
139.11999915	-55.70238000
139.15999915	-73.67168000
139.19999915	-91.64098000
139.23999915	-102.42620000
139.27999915	-111.41090000
139.31999915	-118.59490000
139.35999915	-122.19000000
139.39999915	-118.59490000
139.43999915	-116.80040000
139.47999915	-111.41090000
139.51999915	-107.81580000
139.55999915	-104.22070000
139.59999915	-89.84650000
139.63999915	-79.06125000
139.67999915	-68.28211000
139.71999915	-66.48762000
139.75999915	-66.48762000
139.79999915	-66.48762000
139.83999915	-68.28211000
139.87999915	-71.87719000
139.91999915	-77.26676000
139.95999915	-79.06125000
139.99999915	-80.86184000
140.03999915	-80.86184000
140.07999915	-79.06125000
140.11999915	-79.06125000
140.15999915	-73.67168000
140.19999915	-68.28211000
140.23999915	-59.29746000
140.27999915	-48.51222000
140.31999915	-39.52757000
140.35999915	-25.15336000
140.39999915	-14.37422000
140.43999915	1.79448800
140.47999915	17.96930000
140.51999915	39.52757000
140.55999915	59.29746000
140.59999915	80.86184000
140.63999915	104.22070000
140.67999915	125.78510000
140.71999914	143.75440000
140.75999914	158.12860000
140.79999914	168.91380000
140.83999914	161.72370000
140.87999914	150.94450000
140.91999914	140.15930000
140.95999914	132.97520000
140.99999914	123.99060000
141.03999914	115.00600000
141.07999914	109.61030000
141.11999914	104.22070000
141.15999914	98.83114000
141.19999914	93.44157000
141.23999914	88.04590000
141.27999914	82.65633000
141.31999914	75.47227000
141.35999914	66.48762000
141.39999914	53.90789000
141.43999914	35.93859000
141.47999914	16.16870000
141.51999914	-8.98464900
141.55999914	-30.54292000
141.59999914	-50.31281000
141.63999914	-71.87719000
141.67999914	-86.25141000
141.71999914	-98.83114000
141.75999914	-109.61030000
141.79999914	-115.00600000
141.83999914	-118.59490000
141.87999914	-116.80040000
141.91999914	-113.20540000
141.95999914	-115.00600000
141.99999914	-106.01520000
142.03999914	-106.01520000
142.07999914	-91.64098000
142.11999914	-91.64098000
142.15999914	-79.06125000
142.19999914	-89.84650000
142.23999914	-86.25141000
142.27999914	-102.42620000
142.31999914	-113.20540000
142.35999913	-107.81580000
142.39999913	-104.22070000
142.43999913	-111.41090000
142.47999913	-113.20540000
142.51999913	-107.81580000
142.55999913	-95.23605000
142.59999913	-86.25141000
142.63999913	-79.06125000
142.67999913	-66.48762000
142.71999913	-52.10730000
142.75999913	-41.32816000
142.79999913	-30.54292000
142.83999913	-17.96930000
142.87999913	-7.18405700
142.91999913	3.58897700
142.95999913	16.16870000
142.99999913	28.74844000
143.03999913	43.12265000
143.07999913	55.70238000
143.11999913	70.07660000
143.15999913	84.45692000
143.19999913	100.62560000
143.23999913	113.20540000
143.27999913	129.38020000
143.31999913	141.95990000
143.35999913	149.14400000
143.39999913	150.94450000
143.43999913	143.75440000
143.47999913	136.56420000
143.51999913	125.78510000
143.55999913	115.00600000
143.59999913	109.61030000
143.63999913	106.01520000
143.67999913	98.83114000
143.71999913	91.64098000
143.75999913	86.25141000
143.79999913	80.86184000
143.83999913	71.87719000
143.87999913	59.29746000
143.91999913	48.51222000
143.95999913	35.93859000
143.99999912	19.76379000
144.03999912	0.00000000
144.07999912	-17.96930000
144.11999912	-35.93859000
144.15999912	-53.90789000
144.19999912	-68.28211000
144.23999912	-82.65633000
144.27999912	-95.23605000
144.31999912	-104.22070000
144.35999912	-109.61030000
144.39999912	-115.00600000
144.43999912	-115.00600000
144.47999912	-116.80040000
144.51999912	-107.81580000
144.55999912	-104.22070000
144.59999912	-86.25141000
144.63999912	-82.65633000
144.67999912	-71.87719000
144.71999912	-73.67168000
144.75999912	-73.67168000
144.79999912	-77.26676000
144.83999912	-80.86184000
144.87999912	-82.65633000
144.91999912	-88.04590000
144.95999912	-88.04590000
144.99999912	-89.84650000
145.03999912	-91.64098000
145.07999912	-89.84650000
145.11999912	-86.25141000
145.15999912	-80.86184000
145.19999912	-71.87719000
145.23999912	-64.68703000
145.27999912	-53.90789000
145.31999912	-43.12265000
145.35999912	-35.93859000
145.39999912	-23.35887000
145.43999912	-12.57363000
145.47999912	0.00000000
145.51999912	16.16870000
145.55999912	35.93859000
145.59999912	57.50298000
145.63999911	79.06125000
145.67999911	102.42620000
145.71999911	129.38020000
145.75999911	149.14400000
145.79999911	168.91380000
145.83999911	172.50890000
145.87999911	170.70830000
145.91999911	156.33410000
145.95999911	145.54890000
145.99999911	136.56420000
146.03999911	127.57960000
146.07999911	118.59490000
146.11999911	111.41090000
146.15999911	106.01520000
146.19999911	100.62560000
146.23999911	95.23605000
146.27999911	91.64098000
146.31999911	89.84650000
146.35999911	84.45692000
146.39999911	77.26676000
146.43999911	66.48762000
146.47999911	48.51222000
146.51999911	26.95395000
146.55999911	3.58897700
146.59999911	-19.76379000
146.63999911	-43.12265000
146.67999911	-64.68703000
146.71999911	-80.86184000
146.75999911	-95.23605000
146.79999911	-107.81580000
146.83999911	-115.00600000
146.87999911	-113.20540000
146.91999911	-115.00600000
146.95999911	-93.44157000
146.99999911	-86.25141000
147.03999911	-66.48762000
147.07999911	-64.68703000
147.11999911	-59.29746000
147.15999911	-64.68703000
147.19999911	-68.28211000
147.23999911	-70.07660000
147.27999910	-71.87719000
147.31999910	-75.47227000
147.35999910	-79.06125000
147.39999910	-88.04590000
147.43999910	-89.84650000
147.47999910	-91.64098000
147.51999910	-88.04590000
147.55999910	-84.45692000
147.59999910	-77.26676000
147.63999910	-68.28211000
147.67999910	-61.09195000
147.71999910	-53.90789000
147.75999910	-44.92325000
147.79999910	-37.73308000
147.83999910	-30.54292000
147.87999910	-21.55827000
147.91999910	-12.57363000
147.95999910	0.00000000
147.99999910	12.57363000
148.03999910	28.74844000
148.07999910	48.51222000
148.11999910	70.07660000
148.15999910	89.84650000
148.19999910	113.20540000
148.23999910	134.76970000
148.27999910	149.14400000
148.31999910	165.31880000
148.35999910	165.31880000
148.39999910	159.92920000
148.43999910	143.75440000
148.47999910	134.76970000
148.51999910	127.57960000
148.55999910	122.19000000
148.59999910	113.20540000
148.63999910	107.81580000
148.67999910	104.22070000
148.71999910	100.62560000
148.75999910	98.83114000
148.79999910	95.23605000
148.83999910	89.84650000
148.87999910	82.65633000
148.91999909	73.67168000
148.95999909	61.09195000
148.99999909	41.32816000
149.03999909	17.96930000
149.07999909	-5.38956800
149.11999909	-28.74844000
149.15999909	-50.31281000
149.19999909	-71.87719000
149.23999909	-88.04590000
149.27999909	-100.62560000
149.31999909	-111.41090000
149.35999909	-116.80040000
149.39999909	-120.39550000
149.43999909	-118.59490000
149.47999909	-115.00600000
149.51999909	-109.61030000
149.55999909	-102.42620000
149.59999909	-97.03055000
149.63999909	-89.84650000
149.67999909	-86.25141000
149.71999909	-75.47227000
149.75999909	-71.87719000
149.79999909	-64.68703000
149.83999909	-64.68703000
149.87999909	-68.28211000
149.91999909	-70.07660000
149.95999909	-73.67168000
149.99999909	-77.26676000
150.03999909	-79.06125000
150.07999909	-79.06125000
150.11999909	-77.26676000
150.15999909	-75.47227000
150.19999909	-71.87719000
150.23999909	-64.68703000
150.27999909	-57.50298000
150.31999909	-50.31281000
150.35999909	-37.73308000
150.39999909	-28.74844000
150.43999909	-14.37422000
150.47999909	0.00000000
150.51999909	19.76379000
150.55999908	39.52757000
150.59999908	59.29746000
150.63999908	80.86184000
150.67999908	100.62560000
150.71999908	122.19000000
150.75999908	141.95990000
150.79999908	156.33410000
150.83999908	165.31880000
150.87999908	161.72370000
150.91999908	150.94450000
150.95999908	138.36480000
150.99999908	132.97520000
151.03999908	127.57960000
151.07999908	116.80040000
151.11999908	111.41090000
151.15999908	106.01520000
151.19999908	100.62560000
151.23999908	93.44157000
151.27999908	89.84650000
151.31999908	86.25141000
151.35999908	79.06125000
151.39999908	70.07660000
151.43999908	57.50298000
151.47999908	41.32816000
151.51999908	19.76379000
151.55999908	-1.79448800
151.59999908	-25.15336000
151.63999908	-44.92325000
151.67999908	-64.68703000
151.71999908	-80.86184000
151.75999908	-95.23605000
151.79999908	-109.61030000
151.83999908	-122.19000000
151.87999908	-134.76970000
151.91999908	-140.15930000
151.95999908	-138.36480000
151.99999908	-123.99060000
152.03999908	-102.42620000
152.07999908	-73.67168000
152.11999908	-52.10730000
152.15999908	-43.12265000
152.19999908	-26.95395000
152.23999907	-19.76379000
152.27999907	-35.93859000
152.31999907	-57.50298000
152.35999907	-73.67168000
152.39999907	-84.45692000
152.43999907	-93.44157000
152.47999907	-107.81580000
152.51999907	-107.81580000
152.55999907	-102.42620000
152.59999907	-98.83114000
152.63999907	-95.23605000
152.67999907	-86.25141000
152.71999907	-75.47227000
152.75999907	-66.48762000
152.79999907	-52.10730000
152.83999907	-41.32816000
152.87999907	-28.74844000
152.91999907	-21.55827000
152.95999907	-8.98464900
152.99999907	7.18405700
153.03999907	28.74844000
153.07999907	48.51222000
153.11999907	71.87719000
153.15999907	98.83114000
153.19999907	127.57960000
153.23999907	150.94450000
153.27999907	167.11330000
153.31999907	181.49360000
153.35999907	176.09790000
153.39999907	165.31880000
153.43999907	143.75440000
153.47999907	127.57960000
153.51999907	116.80040000
153.55999907	111.41090000
153.59999907	104.22070000
153.63999907	100.62560000
153.67999907	100.62560000
153.71999907	98.83114000
153.75999907	95.23605000
153.79999907	91.64098000
153.83999907	86.25141000
153.87999906	79.06125000
153.91999906	70.07660000
153.95999906	55.70238000
153.99999906	37.73308000
154.03999906	16.16870000
154.07999906	-3.58897700
154.11999906	-25.15336000
154.15999906	-44.92325000
154.19999906	-66.48762000
154.23999906	-86.25141000
154.27999906	-100.62560000
154.31999906	-113.20540000
154.35999906	-122.19000000
154.39999906	-120.39550000
154.43999906	-120.39550000
154.47999906	-100.62560000
154.51999906	-89.84650000
154.55999906	-71.87719000
154.59999906	-70.07660000
154.63999906	-64.68703000
154.67999906	-64.68703000
154.71999906	-64.68703000
154.75999906	-68.28211000
154.79999906	-71.87719000
154.83999906	-73.67168000
154.87999906	-79.06125000
154.91999906	-84.45692000
154.95999906	-88.04590000
154.99999906	-89.84650000
155.03999906	-86.25141000
155.07999906	-80.86184000
155.11999906	-73.67168000
155.15999906	-64.68703000
155.19999906	-57.50298000
155.23999906	-48.51222000
155.27999906	-41.32816000
155.31999906	-35.93859000
155.35999906	-28.74844000
155.39999906	-21.55827000
155.43999906	-12.57363000
155.47999906	1.79448800
155.51999905	19.76379000
155.55999905	39.52757000
155.59999905	61.09195000
155.63999905	84.45692000
155.67999905	107.81580000
155.71999905	131.17470000
155.75999905	150.94450000
155.79999905	163.51820000
155.83999905	168.91380000
155.87999905	165.31880000
155.91999905	150.94450000
155.95999905	140.15930000
155.99999905	132.97520000
156.03999905	123.99060000
156.07999905	115.00600000
156.11999905	107.81580000
156.15999905	93.44157000
156.19999905	68.28211000
156.23999905	61.09195000
156.27999905	71.87719000
156.31999905	82.65633000
156.35999905	84.45692000
156.39999905	84.45692000
156.43999905	95.23605000
156.47999905	93.44157000
156.51999905	73.67168000
156.55999905	34.13800000
156.59999905	-8.98464900
156.63999905	-39.52757000
156.67999905	-62.89254000
156.71999905	-88.04590000
156.75999905	-115.00600000
156.79999905	-129.38020000
156.83999905	-125.78510000
156.87999905	-115.00600000
156.91999905	-109.61030000
156.95999905	-106.01520000
156.99999905	-100.62560000
157.03999905	-86.25141000
157.07999905	-73.67168000
157.11999905	-64.68703000
157.15999904	-70.07660000
157.19999904	-71.87719000
157.23999904	-73.67168000
157.27999904	-71.87719000
157.31999904	-75.47227000
157.35999904	-79.06125000
157.39999904	-80.86184000
157.43999904	-75.47227000
157.47999904	-68.28211000
157.51999904	-62.89254000
157.55999904	-59.29746000
157.59999904	-57.50298000
157.63999904	-55.70238000
157.67999904	-52.10730000
157.71999904	-52.10730000
157.75999904	-53.90789000
157.79999904	-52.10730000
157.83999904	-43.12265000
157.87999904	-30.54292000
157.91999904	-16.16870000
157.95999904	1.79448800
157.99999904	21.55827000
158.03999904	43.12265000
158.07999904	64.68703000
158.11999904	84.45692000
158.15999904	104.22070000
158.19999904	123.99060000
158.23999904	143.75440000
158.27999904	161.72370000
158.31999904	172.50890000
158.35999904	170.70830000
158.39999904	161.72370000
158.43999904	150.94450000
158.47999904	141.95990000
158.51999904	132.97520000
158.55999904	122.19000000
158.59999904	115.00600000
158.63999904	106.01520000
158.67999904	100.62560000
158.71999904	93.44157000
158.75999904	91.64098000
158.79999903	89.84650000
158.83999903	84.45692000
158.87999903	77.26676000
158.91999903	66.48762000
158.95999903	50.31281000
158.99999903	28.74844000
159.03999903	7.18405700
159.07999903	-14.37422000
159.11999903	-34.13800000
159.15999903	-53.90789000
159.19999903	-73.67168000
159.23999903	-89.84650000
159.27999903	-102.42620000
159.31999903	-113.20540000
159.35999903	-116.80040000
159.39999903	-118.59490000
159.43999903	-113.20540000
159.47999903	-107.81580000
159.51999903	-100.62560000
159.55999903	-95.23605000
159.59999903	-84.45692000
159.63999903	-79.06125000
159.67999903	-71.87719000
159.71999903	-71.87719000
159.75999903	-70.07660000
159.79999903	-70.07660000
159.83999903	-71.87719000
159.87999903	-73.67168000
159.91999903	-73.67168000
159.95999903	-75.47227000
159.99999903	-73.67168000
160.03999903	-73.67168000
160.07999903	-71.87719000
160.11999903	-70.07660000
160.15999903	-66.48762000
160.19999903	-61.09195000
160.23999903	-55.70238000
160.27999903	-46.71774000
160.31999903	-37.73308000
160.35999903	-26.95395000
160.39999903	-14.37422000
160.43999902	-1.79448800
160.47999902	14.37422000
160.51999902	30.54292000
160.55999902	50.31281000
160.59999902	70.07660000
160.63999902	89.84650000
160.67999902	111.41090000
160.71999902	129.38020000
160.75999902	147.34950000
160.79999902	159.92920000
160.83999902	161.72370000
160.87999902	156.33410000
160.91999902	143.75440000
160.95999902	136.56420000
160.99999902	129.38020000
161.03999902	122.19000000
161.07999902	115.00600000
161.11999902	109.61030000
161.15999902	106.01520000
161.19999902	100.62560000
161.23999902	93.44157000
161.27999902	86.25141000
161.31999902	79.06125000
161.35999902	71.87719000
161.39999902	59.29746000
161.43999902	44.92325000
161.47999902	26.95395000
161.51999902	5.38956800
161.55999902	-16.16870000
161.59999902	-37.73308000
161.63999902	-57.50298000
161.67999902	-75.47227000
161.71999902	-89.84650000
161.75999902	-102.42620000
161.79999902	-109.61030000
161.83999902	-115.00600000
161.87999902	-113.20540000
161.91999902	-109.61030000
161.95999902	-95.23605000
161.99999902	-97.03055000
162.03999902	-77.26676000
162.07999901	-62.89254000
162.11999901	-64.68703000
162.15999901	-71.87719000
162.19999901	-73.67168000
162.23999901	-75.47227000
162.27999901	-75.47227000
162.31999901	-80.86184000
162.35999901	-86.25141000
162.39999901	-88.04590000
162.43999901	-88.04590000
162.47999901	-89.84650000
162.51999901	-86.25141000
162.55999901	-82.65633000
162.59999901	-75.47227000
162.63999901	-70.07660000
162.67999901	-59.29746000
162.71999901	-52.10730000
162.75999901	-44.92325000
162.79999901	-39.52757000
162.83999901	-30.54292000
162.87999901	-21.55827000
162.91999901	-8.98464900
162.95999901	5.38956800
162.99999901	25.15336000
163.03999901	43.12265000
163.07999901	62.89254000
163.11999901	84.45692000
163.15999901	107.81580000
163.19999901	129.38020000
163.23999901	147.34950000
163.27999901	163.51820000
163.31999901	168.91380000
163.35999901	158.12860000
163.39999901	147.34950000
163.43999901	138.36480000
163.47999901	129.38020000
163.51999901	118.59490000
163.55999901	111.41090000
163.59999901	107.81580000
163.63999901	102.42620000
163.67999901	97.03055000
163.71999900	93.44157000
163.75999900	91.64098000
163.79999900	88.04590000
163.83999900	82.65633000
163.87999900	73.67168000
163.91999900	61.09195000
163.95999900	43.12265000
163.99999900	21.55827000
164.03999900	-1.79448800
164.07999900	-23.35887000
164.11999900	-44.92325000
164.15999900	-64.68703000
164.19999900	-82.65633000
164.23999900	-95.23605000
164.27999900	-107.81580000
164.31999900	-113.20540000
164.35999900	-113.20540000
164.39999900	-104.22070000
164.43999900	-93.44157000
164.47999900	-77.26676000
164.51999900	-68.28211000
164.55999900	-66.48762000
164.59999900	-64.68703000
164.63999900	-66.48762000
164.67999900	-70.07660000
164.71999900	-73.67168000
164.75999900	-77.26676000
164.79999900	-80.86184000
164.83999900	-86.25141000
164.87999900	-88.04590000
164.91999900	-89.84650000
164.95999900	-88.04590000
164.99999900	-84.45692000
165.03999900	-79.06125000
165.07999900	-70.07660000
165.11999900	-62.89254000
165.15999900	-57.50298000
165.19999900	-50.31281000
165.23999900	-44.92325000
165.27999900	-39.52757000
165.31999900	-32.34352000
165.35999900	-23.35887000
165.39999899	-10.77914000
165.43999899	1.79448800
165.47999899	17.96930000
165.51999899	37.73308000
165.55999899	57.50298000
165.59999899	80.86184000
165.63999899	102.42620000
165.67999899	123.99060000
165.71999899	143.75440000
165.75999899	158.12860000
165.79999899	165.31880000
165.83999899	161.72370000
165.87999899	150.94450000
165.91999899	140.15930000
165.95999899	131.17470000
165.99999899	125.78510000
166.03999899	115.00600000
166.07999899	111.41090000
166.11999899	107.81580000
166.15999899	102.42620000
166.19999899	100.62560000
166.23999899	97.03055000
166.27999899	93.44157000
166.31999899	89.84650000
166.35999899	80.86184000
166.39999899	70.07660000
166.43999899	53.90789000
166.47999899	34.13800000
166.51999899	12.57363000
166.55999899	-8.98464900
166.59999899	-32.34352000
166.63999899	-53.90789000
166.67999899	-71.87719000
166.71999899	-88.04590000
166.75999899	-100.62560000
166.79999899	-111.41090000
166.83999899	-116.80040000
166.87999899	-116.80040000
166.91999899	-107.81580000
166.95999899	-91.64098000
166.99999899	-73.67168000
167.03999898	-68.28211000
167.07999898	-66.48762000
167.11999898	-64.68703000
167.15999898	-64.68703000
167.19999898	-68.28211000
167.23999898	-70.07660000
167.27999898	-73.67168000
167.31999898	-77.26676000
167.35999898	-82.65633000
167.39999898	-84.45692000
167.43999898	-86.25141000
167.47999898	-84.45692000
167.51999898	-80.86184000
167.55999898	-75.47227000
167.59999898	-66.48762000
167.63999898	-59.29746000
167.67999898	-53.90789000
167.71999898	-44.92325000
167.75999898	-39.52757000
167.79999898	-28.74844000
167.83999898	-25.15336000
167.87999898	-12.57363000
167.91999898	-1.79448800
167.95999898	14.37422000
167.99999898	32.34352000
168.03999898	50.31281000
168.07999898	71.87719000
168.11999898	93.44157000
168.15999898	116.80040000
168.19999898	136.56420000
168.23999898	150.94450000
168.27999898	163.51820000
168.31999898	159.92920000
168.35999898	152.73900000
168.39999898	141.95990000
168.43999898	134.76970000
168.47999898	129.38020000
168.51999898	120.39550000
168.55999898	113.20540000
168.59999898	107.81580000
168.63999898	106.01520000
168.67999897	102.42620000
168.71999897	98.83114000
168.75999897	95.23605000
168.79999897	91.64098000
168.83999897	86.25141000
168.87999897	77.26676000
168.91999897	62.89254000
168.95999897	43.12265000
168.99999897	23.35887000
169.03999897	0.00000000
169.07999897	-21.55827000
169.11999897	-44.92325000
169.15999897	-64.68703000
169.19999897	-80.86184000
169.23999897	-97.03055000
169.27999897	-107.81580000
169.31999897	-116.80040000
169.35999897	-116.80040000
169.39999897	-113.20540000
169.43999897	-100.62560000
169.47999897	-91.64098000
169.51999897	-75.47227000
169.55999897	-70.07660000
169.59999897	-66.48762000
169.63999897	-64.68703000
169.67999897	-66.48762000
169.71999897	-68.28211000
169.75999897	-71.87719000
169.79999897	-73.67168000
169.83999897	-79.06125000
169.87999897	-82.65633000
169.91999897	-84.45692000
169.95999897	-86.25141000
169.99999897	-82.65633000
170.03999897	-79.06125000
170.07999897	-71.87719000
170.11999897	-64.68703000
170.15999897	-57.50298000
170.19999897	-50.31281000
170.23999897	-43.12265000
170.27999897	-35.93859000
170.31999896	-28.74844000
170.35999896	-19.76379000
170.39999896	-7.18405700
170.43999896	7.18405700
170.47999896	25.15336000
170.51999896	43.12265000
170.55999896	62.89254000
170.59999896	82.65633000
170.63999896	104.22070000
170.67999896	123.99060000
170.71999896	143.75440000
170.75999896	154.53350000
170.79999896	163.51820000
170.83999896	158.12860000
170.87999896	150.94450000
170.91999896	136.56420000
170.95999896	131.17470000
170.99999896	122.19000000
171.03999896	116.80040000
171.07999896	111.41090000
171.11999896	106.01520000
171.15999896	102.42620000
171.19999896	98.83114000
171.23999896	95.23605000
171.27999896	91.64098000
171.31999896	86.25141000
171.35999896	77.26676000
171.39999896	66.48762000
171.43999896	50.31281000
171.47999896	28.74844000
171.51999896	7.18405700
171.55999896	-14.37422000
171.59999896	-35.93859000
171.63999896	-57.50298000
171.67999896	-75.47227000
171.71999896	-91.64098000
171.75999896	-102.42620000
171.79999896	-109.61030000
171.83999896	-125.78510000
171.87999896	-127.57960000
171.91999896	-115.00600000
171.95999895	-104.22070000
171.99999895	-111.41090000
172.03999895	-89.84650000
172.07999895	-80.86184000
172.11999895	-59.29746000
172.15999895	-62.89254000
172.19999895	-64.68703000
172.23999895	-62.89254000
172.27999895	-66.48762000
172.31999895	-71.87719000
172.35999895	-79.06125000
172.39999895	-79.06125000
172.43999895	-82.65633000
172.47999895	-86.25141000
172.51999895	-82.65633000
172.55999895	-79.06125000
172.59999895	-77.26676000
172.63999895	-71.87719000
172.67999895	-62.89254000
172.71999895	-53.90789000
172.75999895	-44.92325000
172.79999895	-37.73308000
172.83999895	-26.95395000
172.87999895	-16.16870000
172.91999895	-3.58897700
172.95999895	12.57363000
172.99999895	30.54292000
173.03999895	52.10730000
173.07999895	71.87719000
173.11999895	91.64098000
173.15999895	115.00600000
173.19999895	134.76970000
173.23999895	152.73900000
173.27999895	165.31880000
173.31999895	161.72370000
173.35999895	156.33410000
173.39999895	143.75440000
173.43999895	136.56420000
173.47999895	125.78510000
173.51999895	116.80040000
173.55999895	113.20540000
173.59999894	107.81580000
173.63999894	100.62560000
173.67999894	95.23605000
173.71999894	91.64098000
173.75999894	89.84650000
173.79999894	84.45692000
173.83999894	77.26676000
173.87999894	68.28211000
173.91999894	52.10730000
173.95999894	34.13800000
173.99999894	12.57363000
174.03999894	-10.77914000
174.07999894	-34.13800000
174.11999894	-53.90789000
174.15999894	-71.87719000
174.19999894	-88.04590000
174.23999894	-100.62560000
174.27999894	-111.41090000
174.31999894	-116.80040000
174.35999894	-115.00600000
174.39999894	-116.80040000
174.43999894	-95.23605000
174.47999894	-86.25141000
174.51999894	-68.28211000
174.55999894	-68.28211000
174.59999894	-64.68703000
174.63999894	-66.48762000
174.67999894	-68.28211000
174.71999894	-71.87719000
174.75999894	-77.26676000
174.79999894	-80.86184000
174.83999894	-84.45692000
174.87999894	-89.84650000
174.91999894	-91.64098000
174.95999894	-91.64098000
174.99999894	-88.04590000
175.03999894	-82.65633000
175.07999894	-73.67168000
175.11999894	-64.68703000
175.15999894	-57.50298000
175.19999894	-50.31281000
175.23999893	-43.12265000
175.27999893	-35.93859000
175.31999893	-28.74844000
175.35999893	-21.55827000
175.39999893	-8.98464900
175.43999893	7.18405700
175.47999893	23.35887000
175.51999893	43.12265000
175.55999893	62.89254000
175.59999893	84.45692000
175.63999893	106.01520000
175.67999893	129.38020000
175.71999893	147.34950000
175.75999893	159.92920000
175.79999893	165.31880000
175.83999893	159.92920000
175.87999893	149.14400000
175.91999893	136.56420000
175.95999893	129.38020000
175.99999893	122.19000000
176.03999893	113.20540000
176.07999893	107.81580000
176.11999893	104.22070000
176.15999893	100.62560000
176.19999893	97.03055000
176.23999893	93.44157000
176.27999893	91.64098000
176.31999893	86.25141000
176.35999893	77.26676000
176.39999893	64.68703000
176.43999893	48.51222000
176.47999893	26.95395000
176.51999893	3.58897700
176.55999893	-19.76379000
176.59999893	-41.32816000
176.63999893	-61.09195000
176.67999893	-80.86184000
176.71999893	-98.83114000
176.75999893	-109.61030000
176.79999893	-115.00600000
176.83999893	-116.80040000
176.87999893	-116.80040000
176.91999892	-116.80040000
176.95999892	-102.42620000
176.99999892	-93.44157000
177.03999892	-75.47227000
177.07999892	-70.07660000
177.11999892	-62.89254000
177.15999892	-62.89254000
177.19999892	-64.68703000
177.23999892	-66.48762000
177.27999892	-77.26676000
177.31999892	-84.45692000
177.35999892	-91.64098000
177.39999892	-93.44157000
177.43999892	-97.03055000
177.47999892	-97.03055000
177.51999892	-93.44157000
177.55999892	-86.25141000
177.59999892	-80.86184000
177.63999892	-70.07660000
177.67999892	-59.29746000
177.71999892	-50.31281000
177.75999892	-39.52757000
177.79999892	-28.74844000
177.83999892	-16.16870000
177.87999892	-3.58897700
177.91999892	8.98464900
177.95999892	25.15336000
177.99999892	43.12265000
178.03999892	57.50298000
178.07999892	77.26676000
178.11999892	95.23605000
178.15999892	113.20540000
178.19999892	129.38020000
178.23999892	141.95990000
178.27999892	152.73900000
178.31999892	158.12860000
178.35999892	154.53350000
178.39999892	143.75440000
178.43999892	132.97520000
178.47999892	123.99060000
178.51999892	116.80040000
178.55999891	111.41090000
178.59999891	107.81580000
178.63999891	102.42620000
178.67999891	98.83114000
178.71999891	93.44157000
178.75999891	91.64098000
178.79999891	86.25141000
178.83999891	79.06125000
178.87999891	70.07660000
178.91999891	57.50298000
178.95999891	37.73308000
178.99999891	16.16870000
179.03999891	-1.79448800
179.07999891	-23.35887000
179.11999891	-44.92325000
179.15999891	-62.89254000
179.19999891	-80.86184000
179.23999891	-93.44157000
179.27999891	-104.22070000
179.31999891	-113.20540000
179.35999891	-115.00600000
179.39999891	-111.41090000
179.43999891	-100.62560000
179.47999891	-89.84650000
179.51999891	-79.06125000
179.55999891	-75.47227000
179.59999891	-73.67168000
179.63999891	-71.87719000
179.67999891	-73.67168000
179.71999891	-75.47227000
179.75999891	-79.06125000
179.79999891	-80.86184000
179.83999891	-86.25141000
179.87999891	-88.04590000
179.91999891	-89.84650000
179.95999891	-89.84650000
179.99999891	-86.25141000
180.03999891	-80.86184000
180.07999891	-73.67168000
180.11999891	-66.48762000
180.15999891	-59.29746000
180.19999890	-52.10730000
180.23999890	-44.92325000
180.27999890	-37.73308000
180.31999890	-30.54292000
180.35999890	-19.76379000
180.39999890	-8.98464900
180.43999890	5.38956800
180.47999890	21.55827000
180.51999890	41.32816000
180.55999890	61.09195000
180.59999890	82.65633000
180.63999890	104.22070000
180.67999890	125.78510000
180.71999890	143.75440000
180.75999890	156.33410000
180.79999890	163.51820000
180.83999890	158.12860000
180.87999890	150.94450000
180.91999890	138.36480000
180.95999890	131.17470000
180.99999890	125.78510000
181.03999890	118.59490000
181.07999890	111.41090000
181.11999890	107.81580000
181.15999890	104.22070000
181.19999890	100.62560000
181.23999890	97.03055000
181.27999890	93.44157000
181.31999890	88.04590000
181.35999890	79.06125000
181.39999890	70.07660000
181.43999890	55.70238000
181.47999890	35.93859000
181.51999890	14.37422000
181.55999890	-8.98464900
181.59999890	-30.54292000
181.63999890	-48.51222000
181.67999890	-79.06125000
181.71999890	-93.44157000
181.75999890	-95.23605000
181.79999890	-104.22070000
181.83999889	-118.59490000
181.87999889	-120.39550000
181.91999889	-118.59490000
181.95999889	-107.81580000
181.99999889	-102.42620000
182.03999889	-93.44157000
182.07999889	-88.04590000
182.11999889	-82.65633000
182.15999889	-80.86184000
182.19999889	-79.06125000
182.23999889	-77.26676000
182.27999889	-80.86184000
182.31999889	-82.65633000
182.35999889	-84.45692000
182.39999889	-84.45692000
182.43999889	-88.04590000
182.47999889	-88.04590000
182.51999889	-86.25141000
182.55999889	-82.65633000
182.59999889	-77.26676000
182.63999889	-71.87719000
182.67999889	-64.68703000
182.71999889	-55.70238000
182.75999889	-48.51222000
182.79999889	-37.73308000
182.83999889	-26.95395000
182.87999889	-14.37422000
182.91999889	-3.58897700
182.95999889	12.57363000
182.99999889	28.74844000
183.03999889	44.92325000
183.07999889	68.28211000
183.11999889	91.64098000
183.15999889	125.78510000
183.19999889	152.73900000
183.23999889	159.92920000
183.27999889	152.73900000
183.31999889	156.33410000
183.35999889	147.34950000
183.39999889	120.39550000
183.43999889	88.04590000
183.47999888	73.67168000
183.51999888	82.65633000
183.55999888	97.03055000
183.59999888	102.42620000
183.63999888	100.62560000
183.67999888	106.01520000
183.71999888	113.20540000
183.75999888	115.00600000
183.79999888	104.22070000
183.83999888	88.04590000
183.87999888	79.06125000
183.91999888	71.87719000
183.95999888	61.09195000
183.99999888	35.93859000
184.03999888	10.77914000
184.07999888	-12.57363000
184.11999888	-30.54292000
184.15999888	-50.31281000
184.19999888	-70.07660000
184.23999888	-88.04590000
184.27999888	-100.62560000
184.31999888	-109.61030000
184.35999888	-118.59490000
184.39999888	-123.99060000
184.43999888	-127.57960000
184.47999888	-120.39550000
184.51999888	-107.81580000
184.55999888	-89.84650000
184.59999888	-79.06125000
184.63999888	-73.67168000
184.67999888	-66.48762000
184.71999888	-61.09195000
184.75999888	-59.29746000
184.79999888	-64.68703000
184.83999888	-71.87719000
184.87999888	-79.06125000
184.91999888	-86.25141000
184.95999888	-89.84650000
184.99999888	-93.44157000
185.03999888	-91.64098000
185.07999888	-86.25141000
185.11999887	-77.26676000
185.15999887	-66.48762000
185.19999887	-59.29746000
185.23999887	-52.10730000
185.27999887	-46.71774000
185.31999887	-41.32816000
185.35999887	-34.13800000
185.39999887	-25.15336000
185.43999887	-14.37422000
185.47999887	3.58897700
185.51999887	25.15336000
185.55999887	46.71774000
185.59999887	70.07660000
185.63999887	91.64098000
185.67999887	115.00600000
185.71999887	136.56420000
185.75999887	152.73900000
185.79999887	167.11330000
185.83999887	167.11330000
185.87999887	163.51820000
185.91999887	149.14400000
185.95999887	140.15930000
185.99999887	129.38020000
186.03999887	120.39550000
186.07999887	113.20540000
186.11999887	106.01520000
186.15999887	100.62560000
186.19999887	97.03055000
186.23999887	93.44157000
186.27999887	91.64098000
186.31999887	88.04590000
186.35999887	80.86184000
186.39999887	71.87719000
186.43999887	57.50298000
186.47999887	39.52757000
186.51999887	17.96930000
186.55999887	-7.18405700
186.59999887	-25.15336000
186.63999887	-43.12265000
186.67999887	-59.29746000
186.71999887	-75.47227000
186.75999886	-91.64098000
186.79999886	-104.22070000
186.83999886	-113.20540000
186.87999886	-118.59490000
186.91999886	-116.80040000
186.95999886	-116.80040000
186.99999886	-104.22070000
187.03999886	-97.03055000
187.07999886	-86.25141000
187.11999886	-80.86184000
187.15999886	-75.47227000
187.19999886	-75.47227000
187.23999886	-73.67168000
187.27999886	-71.87719000
187.31999886	-64.68703000
187.35999886	-46.71774000
187.39999886	-57.50298000
187.43999886	-73.67168000
187.47999886	-84.45692000
187.51999886	-89.84650000
187.55999886	-100.62560000
187.59999886	-118.59490000
187.63999886	-125.78510000
187.67999886	-116.80040000
187.71999886	-89.84650000
187.75999886	-64.68703000
187.79999886	-50.31281000
187.83999886	-35.93859000
187.87999886	-14.37422000
187.91999886	10.77914000
187.95999886	25.15336000
187.99999886	34.13800000
188.03999886	43.12265000
188.07999886	62.89254000
188.11999886	88.04590000
188.15999886	106.01520000
188.19999886	122.19000000
188.23999886	136.56420000
188.27999886	150.94450000
188.31999886	163.51820000
188.35999886	165.31880000
188.39999886	158.12860000
188.43999885	141.95990000
188.47999885	129.38020000
188.51999885	122.19000000
188.55999885	113.20540000
188.59999885	100.62560000
188.63999885	89.84650000
188.67999885	84.45692000
188.71999885	82.65633000
188.75999885	82.65633000
188.79999885	80.86184000
188.83999885	79.06125000
188.87999885	79.06125000
188.91999885	75.47227000
188.95999885	62.89254000
188.99999885	44.92325000
189.03999885	17.96930000
189.07999885	-7.18405700
189.11999885	-30.54292000
189.15999885	-52.10730000
189.19999885	-73.67168000
189.23999885	-88.04590000
189.27999885	-98.83114000
189.31999885	-106.01520000
189.35999885	-113.20540000
189.39999885	-118.59490000
189.43999885	-120.39550000
189.47999885	-120.39550000
189.51999885	-118.59490000
189.55999885	-113.20540000
189.59999885	-104.22070000
189.63999885	-93.44157000
189.67999885	-88.04590000
189.71999885	-82.65633000
189.75999885	-79.06125000
189.79999885	-75.47227000
189.83999885	-77.26676000
189.87999885	-79.06125000
189.91999885	-80.86184000
189.95999885	-84.45692000
189.99999885	-86.25141000
190.03999885	-86.25141000
190.07999884	-84.45692000
190.11999884	-80.86184000
190.15999884	-77.26676000
190.19999884	-71.87719000
190.23999884	-64.68703000
190.27999884	-57.50298000
190.31999884	-46.71774000
190.35999884	-35.93859000
190.39999884	-23.35887000
190.43999884	-10.77914000
190.47999884	3.58897700
190.51999884	21.55827000
190.55999884	39.52757000
190.59999884	57.50298000
190.63999884	75.47227000
190.67999884	95.23605000
190.71999884	116.80040000
190.75999884	136.56420000
190.79999884	156.33410000
190.83999884	168.91380000
190.87999884	165.31880000
190.91999884	159.92920000
190.95999884	143.75440000
190.99999884	136.56420000
191.03999884	125.78510000
191.07999884	116.80040000
191.11999884	107.81580000
191.15999884	100.62560000
191.19999884	98.83114000
191.23999884	91.64098000
191.27999884	88.04590000
191.31999884	82.65633000
191.35999884	77.26676000
191.39999884	70.07660000
191.43999884	59.29746000
191.47999884	46.71774000
191.51999884	14.37422000
191.55999884	-3.58897700
191.59999884	-14.37422000
191.63999884	-32.34352000
191.67999884	-59.29746000
191.71999883	-77.26676000
191.75999883	-89.84650000
191.79999883	-97.03055000
191.83999883	-107.81580000
191.87999883	-115.00600000
191.91999883	-115.00600000
191.95999883	-115.00600000
191.99999883	-113.20540000
192.03999883	-107.81580000
192.07999883	-93.44157000
192.11999883	-88.04590000
192.15999883	-73.67168000
192.19999883	-73.67168000
192.23999883	-71.87719000
192.27999883	-73.67168000
192.31999883	-75.47227000
192.35999883	-80.86184000
192.39999883	-82.65633000
192.43999883	-86.25141000
192.47999883	-88.04590000
192.51999883	-89.84650000
192.55999883	-88.04590000
192.59999883	-86.25141000
192.63999883	-82.65633000
192.67999883	-79.06125000
192.71999883	-68.28211000
192.75999883	-59.29746000
192.79999883	-50.31281000
192.83999883	-39.52757000
192.87999883	-28.74844000
192.91999883	-21.55827000
192.95999883	-7.18405700
192.99999883	5.38956800
193.03999883	21.55827000
193.07999883	43.12265000
193.11999883	64.68703000
193.15999883	84.45692000
193.19999883	104.22070000
193.23999883	129.38020000
193.27999883	147.34950000
193.31999883	163.51820000
193.35999882	165.31880000
193.39999882	161.72370000
193.43999882	150.94450000
193.47999882	140.15930000
193.51999882	132.97520000
193.55999882	122.19000000
193.59999882	115.00600000
193.63999882	109.61030000
193.67999882	106.01520000
193.71999882	98.83114000
193.75999882	93.44157000
193.79999882	88.04590000
193.83999882	84.45692000
193.87999882	79.06125000
193.91999882	68.28211000
193.95999882	55.70238000
193.99999882	39.52757000
194.03999882	16.16870000
194.07999882	-7.18405700
194.11999882	-28.74844000
194.15999882	-50.31281000
194.19999882	-70.07660000
194.23999882	-86.25141000
194.27999882	-97.03055000
194.31999882	-107.81580000
194.35999882	-115.00600000
194.39999882	-118.59490000
194.43999882	-116.80040000
194.47999882	-111.41090000
194.51999882	-106.01520000
194.55999882	-89.84650000
194.59999882	-80.86184000
194.63999882	-68.28211000
194.67999882	-68.28211000
194.71999882	-68.28211000
194.75999882	-70.07660000
194.79999882	-71.87719000
194.83999882	-75.47227000
194.87999882	-79.06125000
194.91999882	-84.45692000
194.95999882	-86.25141000
194.99999881	-88.04590000
195.03999881	-88.04590000
195.07999881	-86.25141000
195.11999881	-80.86184000
195.15999881	-75.47227000
195.19999881	-68.28211000
195.23999881	-59.29746000
195.27999881	-52.10730000
195.31999881	-44.92325000
195.35999881	-35.93859000
195.39999881	-28.74844000
195.43999881	-16.16870000
195.47999881	-5.38956800
195.51999881	12.57363000
195.55999881	32.34352000
195.59999881	52.10730000
195.63999881	73.67168000
195.67999881	95.23605000
195.71999881	118.59490000
195.75999881	140.15930000
195.79999881	156.33410000
195.83999881	170.70830000
195.87999881	165.31880000
195.91999881	158.12860000
195.95999881	141.95990000
195.99999881	134.76970000
196.03999881	125.78510000
196.07999881	116.80040000
196.11999881	109.61030000
196.15999881	104.22070000
196.19999881	100.62560000
196.23999881	93.44157000
196.27999881	89.84650000
196.31999881	86.25141000
196.35999881	80.86184000
196.39999881	70.07660000
196.43999881	59.29746000
196.47999881	46.71774000
196.51999881	28.74844000
196.55999881	3.58897700
196.59999881	-19.76379000
196.63999880	-41.32816000
196.67999880	-61.09195000
196.71999880	-77.26676000
196.75999880	-91.64098000
196.79999880	-102.42620000
196.83999880	-111.41090000
196.87999880	-116.80040000
196.91999880	-116.80040000
196.95999880	-116.80040000
196.99999880	-111.41090000
197.03999880	-107.81580000
197.07999880	-102.42620000
197.11999880	-100.62560000
197.15999880	-98.83114000
197.19999880	-97.03055000
197.23999880	-95.23605000
197.27999880	-95.23605000
197.31999880	-93.44157000
197.35999880	-93.44157000
197.39999880	-88.04590000
197.43999880	-88.04590000
197.47999880	-84.45692000
197.51999880	-82.65633000
197.55999880	-77.26676000
197.59999880	-75.47227000
197.63999880	-71.87719000
197.67999880	-66.48762000
197.71999880	-62.89254000
197.75999880	-57.50298000
197.79999880	-52.10730000
197.83999880	-44.92325000
197.87999880	-35.93859000
197.91999880	-30.54292000
197.95999880	-19.76379000
197.99999880	-7.18405700
198.03999880	10.77914000
198.07999880	28.74844000
198.11999880	50.31281000
198.15999880	70.07660000
198.19999880	91.64098000
198.23999880	113.20540000
198.27999879	131.17470000
198.31999879	149.14400000
198.35999879	158.12860000
198.39999879	163.51820000
198.43999879	158.12860000
198.47999879	143.75440000
198.51999879	131.17470000
198.55999879	123.99060000
198.59999879	115.00600000
198.63999879	107.81580000
198.67999879	102.42620000
198.71999879	98.83114000
198.75999879	91.64098000
198.79999879	84.45692000
198.83999879	79.06125000
198.87999879	71.87719000
198.91999879	61.09195000
198.95999879	48.51222000
198.99999879	34.13800000
199.03999879	16.16870000
199.07999879	-5.38956800
199.11999879	-25.15336000
199.15999879	-44.92325000
199.19999879	-62.89254000
199.23999879	-79.06125000
199.27999879	-91.64098000
199.31999879	-100.62560000
199.35999879	-107.81580000
199.39999879	-111.41090000
199.43999879	-109.61030000
199.47999879	-104.22070000
199.51999879	-97.03055000
199.55999879	-91.64098000
199.59999879	-86.25141000
199.63999879	-84.45692000
199.67999879	-84.45692000
199.71999879	-84.45692000
199.75999879	-86.25141000
199.79999879	-88.04590000
199.83999879	-89.84650000
199.87999879	-93.44157000
199.91999878	-93.44157000
199.95999878	-95.23605000
199.99999878	-97.03055000
200.03999878	-95.23605000
200.07999878	-91.64098000
200.11999878	-86.25141000
