Time	Channel A
(us)	(mV)

0.00000000	-59.29746000
0.04000000	-57.50298000
0.08000000	-62.89254000
0.12000000	-61.09195000
0.16000000	-64.68703000
0.20000000	-64.68703000
0.24000000	-64.68703000
0.28000000	-66.48762000
0.32000000	-64.68703000
0.36000000	-62.89254000
0.40000000	-59.29746000
0.44000000	-52.10730000
0.48000000	-44.92325000
0.52000000	-35.93859000
0.56000000	-28.74844000
0.60000000	-21.55827000
0.64000000	-12.57363000
0.68000000	-3.58897700
0.72000000	7.18405700
0.76000000	19.76379000
0.80000000	32.34352000
0.83999999	46.71774000
0.87999999	59.29746000
0.91999999	71.87719000
0.95999999	88.04590000
0.99999999	102.42620000
1.03999999	120.39550000
1.07999999	134.76970000
1.11999999	145.54890000
1.15999999	150.94450000
1.19999999	147.34950000
1.23999999	140.15930000
1.27999999	127.57960000
1.31999999	118.59490000
1.35999999	109.61030000
1.39999999	102.42620000
1.43999999	93.44157000
1.47999999	84.45692000
1.51999999	71.87719000
1.55999999	61.09195000
1.59999999	50.31281000
1.63999999	35.93859000
1.67999999	26.95395000
1.71999999	16.16870000
1.75999999	1.79448800
1.79999999	-10.77914000
1.83999999	-25.15336000
1.87999999	-39.52757000
1.91999999	-55.70238000
1.95999999	-71.87719000
1.99999999	-79.06125000
2.03999999	-86.25141000
2.07999999	-88.04590000
2.11999999	-93.44157000
2.15999999	-97.03055000
2.19999999	-97.03055000
2.23999999	-95.23605000
2.27999999	-89.84650000
2.31999999	-84.45692000
2.35999999	-75.47227000
2.39999999	-68.28211000
2.43999999	-62.89254000
2.47999998	-61.09195000
2.51999998	-61.09195000
2.55999998	-61.09195000
2.59999998	-61.09195000
2.63999998	-62.89254000
2.67999998	-62.89254000
2.71999998	-62.89254000
2.75999998	-62.89254000
2.79999998	-62.89254000
2.83999998	-59.29746000
2.87999998	-53.90789000
2.91999998	-48.51222000
2.95999998	-43.12265000
2.99999998	-35.93859000
3.03999998	-26.95395000
3.07999998	-12.57363000
3.11999998	5.38956800
3.15999998	35.93859000
3.19999998	46.71774000
3.23999998	39.52757000
3.27999998	43.12265000
3.31999998	50.31281000
3.35999998	53.90789000
3.39999998	43.12265000
3.43999998	44.92325000
3.47999998	70.07660000
3.51999998	107.81580000
3.55999998	136.56420000
3.59999998	150.94450000
3.63999998	152.73900000
3.67999998	154.53350000
3.71999998	154.53350000
3.75999998	145.54890000
3.79999998	125.78510000
3.83999998	109.61030000
3.87999998	102.42620000
3.91999998	100.62560000
3.95999998	86.25141000
3.99999998	70.07660000
4.03999998	55.70238000
4.07999998	44.92325000
4.11999997	35.93859000
4.15999997	21.55827000
4.19999997	5.38956800
4.23999997	-12.57363000
4.27999997	-28.74844000
4.31999997	-44.92325000
4.35999997	-64.68703000
4.39999997	-82.65633000
4.43999997	-95.23605000
4.47999997	-100.62560000
4.51999997	-102.42620000
4.55999997	-100.62560000
4.59999997	-97.03055000
4.63999997	-93.44157000
4.67999997	-86.25141000
4.71999997	-75.47227000
4.75999997	-66.48762000
4.79999997	-64.68703000
4.83999997	-62.89254000
4.87999997	-62.89254000
4.91999997	-64.68703000
4.95999997	-66.48762000
4.99999997	-68.28211000
5.03999997	-66.48762000
5.07999997	-66.48762000
5.11999997	-64.68703000
5.15999997	-64.68703000
5.19999997	-68.28211000
5.23999997	-68.28211000
5.27999997	-66.48762000
5.31999997	-62.89254000
5.35999997	-59.29746000
5.39999997	-52.10730000
5.43999997	-43.12265000
5.47999997	-32.34352000
5.51999997	-21.55827000
5.55999997	-8.98464900
5.59999997	5.38956800
5.63999997	17.96930000
5.67999997	30.54292000
5.71999997	43.12265000
5.75999996	57.50298000
5.79999996	68.28211000
5.83999996	82.65633000
5.87999996	97.03055000
5.91999996	111.41090000
5.95999996	127.57960000
5.99999996	138.36480000
6.03999996	145.54890000
6.07999996	149.14400000
6.11999996	141.95990000
6.15999996	131.17470000
6.19999996	120.39550000
6.23999996	113.20540000
6.27999996	104.22070000
6.31999996	95.23605000
6.35999996	86.25141000
6.39999996	73.67168000
6.43999996	62.89254000
6.47999996	50.31281000
6.51999996	41.32816000
6.55999996	30.54292000
6.59999996	21.55827000
6.63999996	10.77914000
6.67999996	-1.79448800
6.71999996	-16.16870000
6.75999996	-32.34352000
6.79999996	-46.71774000
6.83999996	-59.29746000
6.87999996	-71.87719000
6.91999996	-86.25141000
6.95999996	-102.42620000
6.99999996	-93.44157000
7.03999996	-91.64098000
7.07999996	-95.23605000
7.11999996	-98.83114000
7.15999996	-91.64098000
7.19999996	-82.65633000
7.23999996	-73.67168000
7.27999996	-77.26676000
7.31999996	-73.67168000
7.35999996	-71.87719000
7.39999996	-73.67168000
7.43999995	-73.67168000
7.47999995	-71.87719000
7.51999995	-71.87719000
7.55999995	-71.87719000
7.59999995	-71.87719000
7.63999995	-68.28211000
7.67999995	-66.48762000
7.71999995	-62.89254000
7.75999995	-57.50298000
7.79999995	-50.31281000
7.83999995	-43.12265000
7.87999995	-37.73308000
7.91999995	-30.54292000
7.95999995	-21.55827000
7.99999995	-12.57363000
8.03999995	-3.58897700
8.07999995	5.38956800
8.11999995	19.76379000
8.15999995	32.34352000
8.19999995	44.92325000
8.23999995	57.50298000
8.27999995	70.07660000
8.31999995	86.25141000
8.35999995	97.03055000
8.39999995	113.20540000
8.43999995	127.57960000
8.47999995	138.36480000
8.51999995	143.75440000
8.55999995	143.75440000
8.59999995	141.95990000
8.63999995	132.97520000
8.67999995	122.19000000
8.71999995	111.41090000
8.75999995	104.22070000
8.79999995	93.44157000
8.83999995	80.86184000
8.87999995	70.07660000
8.91999995	57.50298000
8.95999995	44.92325000
8.99999995	32.34352000
9.03999995	21.55827000
9.07999994	10.77914000
9.11999994	0.00000000
9.15999994	-14.37422000
9.19999994	-25.15336000
9.23999994	-39.52757000
9.27999994	-52.10730000
9.31999994	-64.68703000
9.35999994	-73.67168000
9.39999994	-82.65633000
9.43999994	-89.84650000
9.47999994	-95.23605000
9.51999994	-95.23605000
9.55999994	-97.03055000
9.59999994	-93.44157000
9.63999994	-91.64098000
9.67999994	-88.04590000
9.71999994	-86.25141000
9.75999994	-82.65633000
9.79999994	-82.65633000
9.83999994	-82.65633000
9.87999994	-82.65633000
9.91999994	-80.86184000
9.95999994	-79.06125000
9.99999994	-75.47227000
10.03999994	-71.87719000
10.07999994	-68.28211000
10.11999994	-66.48762000
10.15999994	-62.89254000
10.19999994	-57.50298000
10.23999994	-53.90789000
10.27999994	-46.71774000
10.31999994	-41.32816000
10.35999994	-35.93859000
10.39999994	-28.74844000
10.43999994	-21.55827000
10.47999994	-12.57363000
10.51999994	-1.79448800
10.55999994	7.18405700
10.59999994	19.76379000
10.63999994	32.34352000
10.67999994	44.92325000
10.71999993	55.70238000
10.75999993	70.07660000
10.79999993	84.45692000
10.83999993	98.83114000
10.87999993	115.00600000
10.91999993	129.38020000
10.95999993	136.56420000
10.99999993	141.95990000
11.03999993	141.95990000
11.07999993	136.56420000
11.11999993	129.38020000
11.15999993	120.39550000
11.19999993	111.41090000
11.23999993	100.62560000
11.27999993	89.84650000
11.31999993	79.06125000
11.35999993	64.68703000
11.39999993	53.90789000
11.43999993	41.32816000
11.47999993	28.74844000
11.51999993	17.96930000
11.55999993	7.18405700
11.59999993	-5.38956800
11.63999993	-17.96930000
11.67999993	-30.54292000
11.71999993	-43.12265000
11.75999993	-55.70238000
11.79999993	-71.87719000
11.83999993	-79.06125000
11.87999993	-86.25141000
11.91999993	-89.84650000
11.95999993	-93.44157000
11.99999993	-97.03055000
12.03999993	-98.83114000
12.07999993	-93.44157000
12.11999993	-89.84650000
12.15999993	-79.06125000
12.19999993	-73.67168000
12.23999993	-62.89254000
12.27999993	-64.68703000
12.31999993	-62.89254000
12.35999992	-64.68703000
12.39999992	-64.68703000
12.43999992	-66.48762000
12.47999992	-68.28211000
12.51999992	-68.28211000
12.55999992	-68.28211000
12.59999992	-68.28211000
12.63999992	-66.48762000
12.67999992	-64.68703000
12.71999992	-59.29746000
12.75999992	-53.90789000
12.79999992	-44.92325000
12.83999992	-35.93859000
12.87999992	-28.74844000
12.91999992	-19.76379000
12.95999992	-8.98464900
12.99999992	0.00000000
13.03999992	12.57363000
13.07999992	23.35887000
13.11999992	41.32816000
13.15999992	55.70238000
13.19999992	71.87719000
13.23999992	84.45692000
13.27999992	98.83114000
13.31999992	116.80040000
13.35999992	134.76970000
13.39999992	147.34950000
13.43999992	154.53350000
13.47999992	150.94450000
13.51999992	143.75440000
13.55999992	134.76970000
13.59999992	120.39550000
13.63999992	113.20540000
13.67999992	104.22070000
13.71999992	93.44157000
13.75999992	84.45692000
13.79999992	71.87719000
13.83999992	61.09195000
13.87999992	48.51222000
13.91999992	35.93859000
13.95999992	26.95395000
13.99999991	16.16870000
14.03999991	5.38956800
14.07999991	-8.98464900
14.11999991	-23.35887000
14.15999991	-37.73308000
14.19999991	-52.10730000
14.23999991	-64.68703000
14.27999991	-75.47227000
14.31999991	-84.45692000
14.35999991	-91.64098000
14.39999991	-95.23605000
14.43999991	-97.03055000
14.47999991	-95.23605000
14.51999991	-93.44157000
14.55999991	-91.64098000
14.59999991	-86.25141000
14.63999991	-82.65633000
14.67999991	-80.86184000
14.71999991	-80.86184000
14.75999991	-79.06125000
14.79999991	-79.06125000
14.83999991	-79.06125000
14.87999991	-77.26676000
14.91999991	-75.47227000
14.95999991	-71.87719000
14.99999991	-73.67168000
15.03999991	-70.07660000
15.07999991	-64.68703000
15.11999991	-62.89254000
15.15999991	-55.70238000
15.19999991	-48.51222000
15.23999991	-39.52757000
15.27999991	-30.54292000
15.31999991	-25.15336000
15.35999991	-16.16870000
15.39999991	-7.18405700
15.43999991	1.79448800
15.47999991	14.37422000
15.51999991	23.35887000
15.55999991	35.93859000
15.59999991	46.71774000
15.63999990	55.70238000
15.67999990	68.28211000
15.71999990	79.06125000
15.75999990	93.44157000
15.79999990	107.81580000
15.83999990	120.39550000
15.87999990	131.17470000
15.91999990	136.56420000
15.95999990	138.36480000
15.99999990	136.56420000
16.03999990	129.38020000
16.07999990	120.39550000
16.11999990	111.41090000
16.15999990	100.62560000
16.19999990	89.84650000
16.23999990	79.06125000
16.27999990	66.48762000
16.31999990	52.10730000
16.35999990	41.32816000
16.39999990	28.74844000
16.43999990	17.96930000
16.47999990	7.18405700
16.51999990	-3.58897700
16.55999990	-14.37422000
16.59999990	-28.74844000
16.63999990	-39.52757000
16.67999990	-52.10730000
16.71999990	-59.29746000
16.75999990	-77.26676000
16.79999990	-93.44157000
16.83999990	-88.04590000
16.87999990	-86.25141000
16.91999990	-95.23605000
16.95999990	-98.83114000
16.99999990	-95.23605000
17.03999990	-79.06125000
17.07999990	-71.87719000
17.11999990	-64.68703000
17.15999990	-64.68703000
17.19999990	-64.68703000
17.23999990	-64.68703000
17.27999989	-66.48762000
17.31999989	-68.28211000
17.35999989	-70.07660000
17.39999989	-71.87719000
17.43999989	-71.87719000
17.47999989	-71.87719000
17.51999989	-70.07660000
17.55999989	-70.07660000
17.59999989	-64.68703000
17.63999989	-57.50298000
17.67999989	-50.31281000
17.71999989	-41.32816000
17.75999989	-34.13800000
17.79999989	-25.15336000
17.83999989	-16.16870000
17.87999989	-8.98464900
17.91999989	0.00000000
17.95999989	12.57363000
17.99999989	25.15336000
18.03999989	39.52757000
18.07999989	52.10730000
18.11999989	68.28211000
18.15999989	84.45692000
18.19999989	98.83114000
18.23999989	115.00600000
18.27999989	136.56420000
18.31999989	147.34950000
18.35999989	152.73900000
18.39999989	154.53350000
18.43999989	143.75440000
18.47999989	134.76970000
18.51999989	120.39550000
18.55999989	113.20540000
18.59999989	106.01520000
18.63999989	98.83114000
18.67999989	88.04590000
18.71999989	77.26676000
18.75999989	64.68703000
18.79999989	53.90789000
18.83999989	41.32816000
18.87999989	30.54292000
18.91999989	19.76379000
18.95999988	7.18405700
18.99999988	-5.38956800
19.03999988	-21.55827000
19.07999988	-37.73308000
19.11999988	-52.10730000
19.15999988	-64.68703000
19.19999988	-75.47227000
19.23999988	-86.25141000
19.27999988	-89.84650000
19.31999988	-95.23605000
19.35999988	-97.03055000
19.39999988	-95.23605000
19.43999988	-93.44157000
19.47999988	-88.04590000
19.51999988	-86.25141000
19.55999988	-80.86184000
19.59999988	-79.06125000
19.63999988	-79.06125000
19.67999988	-73.67168000
19.71999988	-73.67168000
19.75999988	-62.89254000
19.79999988	-61.09195000
19.83999988	-55.70238000
19.87999988	-57.50298000
19.91999988	-57.50298000
19.95999988	-57.50298000
19.99999988	-57.50298000
20.03999988	-53.90789000
20.07999988	-50.31281000
20.11999988	-44.92325000
20.15999988	-41.32816000
20.19999988	-37.73308000
20.23999988	-35.93859000
20.27999988	-28.74844000
20.31999988	-21.55827000
20.35999988	-8.98464900
20.39999988	3.58897700
20.43999988	19.76379000
20.47999988	34.13800000
20.51999988	48.51222000
20.55999988	62.89254000
20.59999987	79.06125000
20.63999987	95.23605000
20.67999987	111.41090000
20.71999987	129.38020000
20.75999987	141.95990000
20.79999987	149.14400000
20.83999987	150.94450000
20.87999987	145.54890000
20.91999987	134.76970000
20.95999987	123.99060000
20.99999987	115.00600000
21.03999987	106.01520000
21.07999987	97.03055000
21.11999987	86.25141000
21.15999987	75.47227000
21.19999987	62.89254000
21.23999987	50.31281000
21.27999987	41.32816000
21.31999987	28.74844000
21.35999987	16.16870000
21.39999987	3.58897700
21.43999987	-8.98464900
21.47999987	-23.35887000
21.51999987	-35.93859000
21.55999987	-50.31281000
21.59999987	-62.89254000
21.63999987	-75.47227000
21.67999987	-86.25141000
21.71999987	-89.84650000
21.75999987	-91.64098000
21.79999987	-93.44157000
21.83999987	-93.44157000
21.87999987	-95.23605000
21.91999987	-89.84650000
21.95999987	-86.25141000
21.99999987	-82.65633000
22.03999987	-82.65633000
22.07999987	-82.65633000
22.11999987	-82.65633000
22.15999987	-82.65633000
22.19999987	-80.86184000
22.23999986	-80.86184000
22.27999986	-79.06125000
22.31999986	-79.06125000
22.35999986	-75.47227000
22.39999986	-73.67168000
22.43999986	-71.87719000
22.47999986	-66.48762000
22.51999986	-61.09195000
22.55999986	-53.90789000
22.59999986	-46.71774000
22.63999986	-39.52757000
22.67999986	-30.54292000
22.71999986	-21.55827000
22.75999986	-12.57363000
22.79999986	-3.58897700
22.83999986	7.18405700
22.87999986	19.76379000
22.91999986	32.34352000
22.95999986	43.12265000
22.99999986	55.70238000
23.03999986	64.68703000
23.07999986	75.47227000
23.11999986	86.25141000
23.15999986	100.62560000
23.19999986	115.00600000
23.23999986	127.57960000
23.27999986	134.76970000
23.31999986	136.56420000
23.35999986	136.56420000
23.39999986	132.97520000
23.43999986	127.57960000
23.47999986	116.80040000
23.51999986	107.81580000
23.55999986	95.23605000
23.59999986	84.45692000
23.63999986	71.87719000
23.67999986	57.50298000
23.71999986	46.71774000
23.75999986	34.13800000
23.79999986	23.35887000
23.83999986	12.57363000
23.87999985	0.00000000
23.91999985	-10.77914000
23.95999985	-23.35887000
23.99999985	-34.13800000
24.03999985	-46.71774000
24.07999985	-57.50298000
24.11999985	-68.28211000
24.15999985	-79.06125000
24.19999985	-86.25141000
24.23999985	-93.44157000
24.27999985	-97.03055000
24.31999985	-98.83114000
24.35999985	-98.83114000
24.39999985	-97.03055000
24.43999985	-93.44157000
24.47999985	-91.64098000
24.51999985	-86.25141000
24.55999985	-84.45692000
24.59999985	-77.26676000
24.63999985	-71.87719000
24.67999985	-64.68703000
24.71999985	-66.48762000
24.75999985	-66.48762000
24.79999985	-64.68703000
24.83999985	-66.48762000
24.87999985	-66.48762000
24.91999985	-64.68703000
24.95999985	-62.89254000
24.99999985	-59.29746000
25.03999985	-55.70238000
25.07999985	-50.31281000
25.11999985	-44.92325000
25.15999985	-39.52757000
25.19999985	-32.34352000
25.23999985	-23.35887000
25.27999985	-10.77914000
25.31999985	-1.79448800
25.35999985	12.57363000
25.39999985	25.15336000
25.43999985	41.32816000
25.47999985	53.90789000
25.51999984	70.07660000
25.55999984	86.25141000
25.59999984	104.22070000
25.63999984	118.59490000
25.67999984	134.76970000
25.71999984	145.54890000
25.75999984	150.94450000
25.79999984	150.94450000
25.83999984	141.95990000
25.87999984	132.97520000
25.91999984	120.39550000
25.95999984	111.41090000
25.99999984	102.42620000
26.03999984	91.64098000
26.07999984	79.06125000
26.11999984	70.07660000
26.15999984	57.50298000
26.19999984	44.92325000
26.23999984	32.34352000
26.27999984	21.55827000
26.31999984	12.57363000
26.35999984	-1.79448800
26.39999984	-14.37422000
26.43999984	-28.74844000
26.47999984	-43.12265000
26.51999984	-55.70238000
26.55999984	-64.68703000
26.59999984	-77.26676000
26.63999984	-97.03055000
26.67999984	-93.44157000
26.71999984	-86.25141000
26.75999984	-91.64098000
26.79999984	-95.23605000
26.83999984	-89.84650000
26.87999984	-82.65633000
26.91999984	-73.67168000
26.95999984	-73.67168000
26.99999984	-68.28211000
27.03999984	-68.28211000
27.07999984	-62.89254000
27.11999984	-62.89254000
27.15999983	-57.50298000
27.19999983	-59.29746000
27.23999983	-61.09195000
27.27999983	-62.89254000
27.31999983	-61.09195000
27.35999983	-61.09195000
27.39999983	-61.09195000
27.43999983	-57.50298000
27.47999983	-52.10730000
27.51999983	-46.71774000
27.55999983	-41.32816000
27.59999983	-35.93859000
27.63999983	-28.74844000
27.67999983	-21.55827000
27.71999983	-12.57363000
27.75999983	-3.58897700
27.79999983	7.18405700
27.83999983	21.55827000
27.87999983	35.93859000
27.91999983	50.31281000
27.95999983	66.48762000
27.99999983	86.25141000
28.03999983	100.62560000
28.07999983	120.39550000
28.11999983	140.15930000
28.15999983	152.73900000
28.19999983	156.33410000
28.23999983	154.53350000
28.27999983	143.75440000
28.31999983	131.17470000
28.35999983	118.59490000
28.39999983	111.41090000
28.43999983	104.22070000
28.47999983	93.44157000
28.51999983	82.65633000
28.55999983	73.67168000
28.59999983	62.89254000
28.63999983	50.31281000
28.67999983	39.52757000
28.71999983	28.74844000
28.75999983	17.96930000
28.79999982	3.58897700
28.83999982	-8.98464900
28.87999982	-25.15336000
28.91999982	-43.12265000
28.95999982	-57.50298000
28.99999982	-70.07660000
29.03999982	-80.86184000
29.07999982	-88.04590000
29.11999982	-95.23605000
29.15999982	-97.03055000
29.19999982	-97.03055000
29.23999982	-93.44157000
29.27999982	-91.64098000
29.31999982	-86.25141000
29.35999982	-80.86184000
29.39999982	-79.06125000
29.43999982	-77.26676000
29.47999982	-75.47227000
29.51999982	-75.47227000
29.55999982	-75.47227000
29.59999982	-73.67168000
29.63999982	-71.87719000
29.67999982	-68.28211000
29.71999982	-66.48762000
29.75999982	-66.48762000
29.79999982	-66.48762000
29.83999982	-64.68703000
29.87999982	-61.09195000
29.91999982	-55.70238000
29.95999982	-48.51222000
29.99999982	-43.12265000
30.03999982	-35.93859000
30.07999982	-26.95395000
30.11999982	-17.96930000
30.15999982	-7.18405700
30.19999982	3.58897700
30.23999982	14.37422000
30.27999982	28.74844000
30.31999982	39.52757000
30.35999982	50.31281000
30.39999982	61.09195000
30.43999982	75.47227000
30.47999981	88.04590000
30.51999981	98.83114000
30.55999981	115.00600000
30.59999981	125.78510000
30.63999981	134.76970000
30.67999981	140.15930000
30.71999981	140.15930000
30.75999981	134.76970000
30.79999981	127.57960000
30.83999981	118.59490000
30.87999981	107.81580000
30.91999981	98.83114000
30.95999981	88.04590000
30.99999981	75.47227000
31.03999981	62.89254000
31.07999981	50.31281000
31.11999981	37.73308000
31.15999981	26.95395000
31.19999981	14.37422000
31.23999981	3.58897700
31.27999981	-8.98464900
31.31999981	-21.55827000
31.35999981	-32.34352000
31.39999981	-44.92325000
31.43999981	-57.50298000
31.47999981	-71.87719000
31.51999981	-82.65633000
31.55999981	-88.04590000
31.59999981	-89.84650000
31.63999981	-93.44157000
31.67999981	-97.03055000
31.71999981	-95.23605000
31.75999981	-95.23605000
31.79999981	-80.86184000
31.83999981	-75.47227000
31.87999981	-64.68703000
31.91999981	-64.68703000
31.95999981	-62.89254000
31.99999981	-64.68703000
32.03999981	-64.68703000
32.07999981	-66.48762000
32.11999980	-68.28211000
32.15999980	-68.28211000
32.19999980	-68.28211000
32.23999980	-70.07660000
32.27999980	-68.28211000
32.31999980	-64.68703000
32.35999980	-61.09195000
32.39999980	-55.70238000
32.43999980	-48.51222000
32.47999980	-39.52757000
32.51999980	-32.34352000
32.55999980	-23.35887000
32.59999980	-16.16870000
32.63999980	-8.98464900
32.67999980	3.58897700
32.71999980	14.37422000
32.75999980	28.74844000
32.79999980	44.92325000
32.83999980	57.50298000
32.87999980	77.26676000
32.91999980	93.44157000
32.95999980	107.81580000
32.99999980	122.19000000
33.03999980	138.36480000
33.07999980	150.94450000
33.11999980	156.33410000
33.15999980	150.94450000
33.19999980	138.36480000
33.23999980	127.57960000
33.27999980	118.59490000
33.31999980	111.41090000
33.35999980	102.42620000
33.39999980	91.64098000
33.43999980	82.65633000
33.47999980	71.87719000
33.51999980	59.29746000
33.55999980	48.51222000
33.59999980	35.93859000
33.63999980	25.15336000
33.67999980	14.37422000
33.71999980	1.79448800
33.75999979	-12.57363000
33.79999979	-28.74844000
33.83999979	-44.92325000
33.87999979	-57.50298000
33.91999979	-70.07660000
33.95999979	-79.06125000
33.99999979	-88.04590000
34.03999979	-93.44157000
34.07999979	-97.03055000
34.11999979	-97.03055000
34.15999979	-95.23605000
34.19999979	-91.64098000
34.23999979	-88.04590000
34.27999979	-84.45692000
34.31999979	-80.86184000
34.35999979	-79.06125000
34.39999979	-79.06125000
34.43999979	-77.26676000
34.47999979	-75.47227000
34.51999979	-77.26676000
34.55999979	-73.67168000
34.59999979	-73.67168000
34.63999979	-71.87719000
34.67999979	-71.87719000
34.71999979	-68.28211000
34.75999979	-64.68703000
34.79999979	-59.29746000
34.83999979	-52.10730000
34.87999979	-44.92325000
34.91999979	-37.73308000
34.95999979	-30.54292000
34.99999979	-21.55827000
35.03999979	-14.37422000
35.07999979	-3.58897700
35.11999979	5.38956800
35.15999979	16.16870000
35.19999979	28.74844000
35.23999979	39.52757000
35.27999979	48.51222000
35.31999979	59.29746000
35.35999979	71.87719000
35.39999978	86.25141000
35.43999978	98.83114000
35.47999978	111.41090000
35.51999978	123.99060000
35.55999978	132.97520000
35.59999978	138.36480000
35.63999978	136.56420000
35.67999978	132.97520000
35.71999978	127.57960000
35.75999978	116.80040000
35.79999978	107.81580000
35.83999978	100.62560000
35.87999978	95.23605000
35.91999978	91.64098000
35.95999978	82.65633000
35.99999978	68.28211000
36.03999978	50.31281000
36.07999978	26.95395000
36.11999978	3.58897700
36.15999978	-17.96930000
36.19999978	-39.52757000
36.23999978	-57.50298000
36.27999978	-66.48762000
36.31999978	-70.07660000
36.35999978	-68.28211000
36.39999978	-68.28211000
36.43999978	-71.87719000
36.47999978	-86.25141000
36.51999978	-80.86184000
36.55999978	-71.87719000
36.59999978	-80.86184000
36.63999978	-88.04590000
36.67999978	-88.04590000
36.71999978	-82.65633000
36.75999978	-70.07660000
36.79999978	-71.87719000
36.83999978	-66.48762000
36.87999978	-66.48762000
36.91999978	-66.48762000
36.95999978	-66.48762000
36.99999978	-68.28211000
37.03999977	-64.68703000
37.07999977	-66.48762000
37.11999977	-66.48762000
37.15999977	-68.28211000
37.19999977	-66.48762000
37.23999977	-68.28211000
37.27999977	-64.68703000
37.31999977	-55.70238000
37.35999977	-50.31281000
37.39999977	-41.32816000
37.43999977	-28.74844000
37.47999977	-21.55827000
37.51999977	-14.37422000
37.55999977	-7.18405700
37.59999977	0.00000000
37.63999977	12.57363000
37.67999977	23.35887000
37.71999977	35.93859000
37.75999977	52.10730000
37.79999977	68.28211000
37.83999977	88.04590000
37.87999977	107.81580000
37.91999977	122.19000000
37.95999977	141.95990000
37.99999977	150.94450000
38.03999977	154.53350000
38.07999977	147.34950000
38.11999977	134.76970000
38.15999977	122.19000000
38.19999977	111.41090000
38.23999977	104.22070000
38.27999977	97.03055000
38.31999977	89.84650000
38.35999977	82.65633000
38.39999977	71.87719000
38.43999977	59.29746000
38.47999977	48.51222000
38.51999977	35.93859000
38.55999977	26.95395000
38.59999977	14.37422000
38.63999977	0.00000000
38.67999976	-14.37422000
38.71999976	-30.54292000
38.75999976	-46.71774000
38.79999976	-62.89254000
38.83999976	-73.67168000
38.87999976	-84.45692000
38.91999976	-89.84650000
38.95999976	-93.44157000
38.99999976	-93.44157000
39.03999976	-91.64098000
39.07999976	-86.25141000
39.11999976	-80.86184000
39.15999976	-75.47227000
39.19999976	-71.87719000
39.23999976	-70.07660000
39.27999976	-68.28211000
39.31999976	-68.28211000
39.35999976	-70.07660000
39.39999976	-70.07660000
39.43999976	-71.87719000
39.47999976	-70.07660000
39.51999976	-68.28211000
39.55999976	-68.28211000
39.59999976	-68.28211000
39.63999976	-64.68703000
39.67999976	-61.09195000
39.71999976	-57.50298000
39.75999976	-50.31281000
39.79999976	-43.12265000
39.83999976	-35.93859000
39.87999976	-28.74844000
39.91999976	-21.55827000
39.95999976	-14.37422000
39.99999976	-3.58897700
40.03999976	5.38956800
40.07999976	17.96930000
40.11999976	28.74844000
40.15999976	43.12265000
40.19999976	55.70238000
40.23999976	66.48762000
40.27999976	80.86184000
40.31999975	93.44157000
40.35999975	109.61030000
40.39999975	122.19000000
40.43999975	134.76970000
40.47999975	141.95990000
40.51999975	143.75440000
40.55999975	140.15930000
40.59999975	132.97520000
40.63999975	122.19000000
40.67999975	113.20540000
40.71999975	104.22070000
40.75999975	93.44157000
40.79999975	82.65633000
40.83999975	71.87719000
40.87999975	57.50298000
40.91999975	46.71774000
40.95999975	34.13800000
40.99999975	21.55827000
41.03999975	12.57363000
41.07999975	0.00000000
41.11999975	-10.77914000
41.15999975	-25.15336000
41.19999975	-39.52757000
41.23999975	-52.10730000
41.27999975	-64.68703000
41.31999975	-77.26676000
41.35999975	-88.04590000
41.39999975	-89.84650000
41.43999975	-91.64098000
41.47999975	-88.04590000
41.51999975	-79.06125000
41.55999975	-73.67168000
41.59999975	-64.68703000
41.63999975	-62.89254000
41.67999975	-59.29746000
41.71999975	-59.29746000
41.75999975	-61.09195000
41.79999975	-62.89254000
41.83999975	-64.68703000
41.87999975	-66.48762000
41.91999975	-68.28211000
41.95999974	-70.07660000
41.99999974	-68.28211000
42.03999974	-66.48762000
42.07999974	-64.68703000
42.11999974	-59.29746000
42.15999974	-53.90789000
42.19999974	-46.71774000
42.23999974	-39.52757000
42.27999974	-34.13800000
42.31999974	-26.95395000
42.35999974	-21.55827000
42.39999974	-14.37422000
42.43999974	-7.18405700
42.47999974	1.79448800
42.51999974	14.37422000
42.55999974	26.95395000
42.59999974	41.32816000
42.63999974	57.50298000
42.67999974	73.67168000
42.71999974	93.44157000
42.75999974	107.81580000
42.79999974	122.19000000
42.83999974	138.36480000
42.87999974	149.14400000
42.91999974	156.33410000
42.95999974	154.53350000
42.99999974	143.75440000
43.03999974	131.17470000
43.07999974	120.39550000
43.11999974	113.20540000
43.15999974	106.01520000
43.19999974	95.23605000
43.23999974	86.25141000
43.27999974	75.47227000
43.31999974	66.48762000
43.35999974	53.90789000
43.39999974	43.12265000
43.43999974	30.54292000
43.47999974	21.55827000
43.51999974	10.77914000
43.55999974	3.58897700
43.59999974	5.38956800
43.63999973	-7.18405700
43.67999973	-35.93859000
43.71999973	-64.68703000
43.75999973	-82.65633000
43.79999973	-100.62560000
43.83999973	-123.99060000
43.87999973	-143.75440000
43.91999973	-147.34950000
43.95999973	-127.57960000
43.99999973	-102.42620000
44.03999973	-86.25141000
44.07999973	-73.67168000
44.11999973	-62.89254000
44.15999973	-48.51222000
44.19999973	-43.12265000
44.23999973	-50.31281000
44.27999973	-59.29746000
44.31999973	-62.89254000
44.35999973	-57.50298000
44.39999973	-55.70238000
44.43999973	-57.50298000
44.47999973	-59.29746000
44.51999973	-59.29746000
44.55999973	-53.90789000
44.59999973	-46.71774000
44.63999973	-44.92325000
44.67999973	-43.12265000
44.71999973	-37.73308000
44.75999973	-30.54292000
44.79999973	-26.95395000
44.83999973	-21.55827000
44.87999973	-16.16870000
44.91999973	-7.18405700
44.95999973	7.18405700
44.99999973	25.15336000
45.03999973	41.32816000
45.07999973	57.50298000
45.11999973	71.87719000
45.15999973	91.64098000
45.19999973	107.81580000
45.23999973	122.19000000
45.27999972	132.97520000
45.31999972	138.36480000
45.35999972	143.75440000
45.39999972	143.75440000
45.43999972	138.36480000
45.47999972	129.38020000
45.51999972	122.19000000
45.55999972	113.20540000
45.59999972	106.01520000
45.63999972	93.44157000
45.67999972	80.86184000
45.71999972	68.28211000
45.75999972	53.90789000
45.79999972	41.32816000
45.83999972	28.74844000
45.87999972	16.16870000
45.91999972	7.18405700
45.95999972	-1.79448800
45.99999972	-8.98464900
46.03999972	-21.55827000
46.07999972	-32.34352000
46.11999972	-43.12265000
46.15999972	-55.70238000
46.19999972	-66.48762000
46.23999972	-75.47227000
46.27999972	-82.65633000
46.31999972	-100.62560000
46.35999972	-98.83114000
46.39999972	-86.25141000
46.43999972	-82.65633000
46.47999972	-86.25141000
46.51999972	-82.65633000
46.55999972	-79.06125000
46.59999972	-71.87719000
46.63999972	-71.87719000
46.67999972	-71.87719000
46.71999972	-70.07660000
46.75999972	-70.07660000
46.79999972	-70.07660000
46.83999972	-71.87719000
46.87999972	-70.07660000
46.91999971	-70.07660000
46.95999971	-68.28211000
46.99999971	-62.89254000
47.03999971	-55.70238000
47.07999971	-50.31281000
47.11999971	-43.12265000
47.15999971	-35.93859000
47.19999971	-28.74844000
47.23999971	-23.35887000
47.27999971	-16.16870000
47.31999971	-10.77914000
47.35999971	0.00000000
47.39999971	7.18405700
47.43999971	19.76379000
47.47999971	32.34352000
47.51999971	48.51222000
47.55999971	62.89254000
47.59999971	77.26676000
47.63999971	93.44157000
47.67999971	109.61030000
47.71999971	129.38020000
47.75999971	140.15930000
47.79999971	143.75440000
47.83999971	150.94450000
47.87999971	147.34950000
47.91999971	134.76970000
47.95999971	123.99060000
47.99999971	115.00600000
48.03999971	107.81580000
48.07999971	98.83114000
48.11999971	88.04590000
48.15999971	77.26676000
48.19999971	68.28211000
48.23999971	55.70238000
48.27999971	43.12265000
48.31999971	28.74844000
48.35999971	19.76379000
48.39999971	7.18405700
48.43999971	-5.38956800
48.47999971	-17.96930000
48.51999971	-32.34352000
48.55999970	-46.71774000
48.59999970	-59.29746000
48.63999970	-71.87719000
48.67999970	-80.86184000
48.71999970	-86.25141000
48.75999970	-89.84650000
48.79999970	-88.04590000
48.83999970	-82.65633000
48.87999970	-75.47227000
48.91999970	-71.87719000
48.95999970	-66.48762000
48.99999970	-64.68703000
49.03999970	-62.89254000
49.07999970	-62.89254000
49.11999970	-64.68703000
49.15999970	-66.48762000
49.19999970	-66.48762000
49.23999970	-70.07660000
49.27999970	-70.07660000
49.31999970	-70.07660000
49.35999970	-70.07660000
49.39999970	-68.28211000
49.43999970	-62.89254000
49.47999970	-57.50298000
49.51999970	-50.31281000
49.55999970	-43.12265000
49.59999970	-37.73308000
49.63999970	-30.54292000
49.67999970	-23.35887000
49.71999970	-16.16870000
49.75999970	-8.98464900
49.79999970	0.00000000
49.83999970	10.77914000
49.87999970	23.35887000
49.91999970	35.93859000
49.95999970	50.31281000
49.99999970	64.68703000
50.03999970	79.06125000
50.07999970	93.44157000
50.11999970	109.61030000
50.15999970	122.19000000
50.19999969	136.56420000
50.23999969	145.54890000
50.27999969	150.94450000
50.31999969	147.34950000
50.35999969	136.56420000
50.39999969	127.57960000
50.43999969	115.00600000
50.47999969	107.81580000
50.51999969	100.62560000
50.55999969	91.64098000
50.59999969	82.65633000
50.63999969	71.87719000
50.67999969	61.09195000
50.71999969	50.31281000
50.75999969	35.93859000
50.79999969	26.95395000
50.83999969	14.37422000
50.87999969	0.00000000
50.91999969	-12.57363000
50.95999969	-28.74844000
50.99999969	-43.12265000
51.03999969	-57.50298000
51.07999969	-68.28211000
51.11999969	-79.06125000
51.15999969	-88.04590000
51.19999969	-98.83114000
51.23999969	-97.03055000
51.27999969	-98.83114000
51.31999969	-93.44157000
51.35999969	-93.44157000
51.39999969	-86.25141000
51.43999969	-86.25141000
51.47999969	-68.28211000
51.51999969	-62.89254000
51.55999969	-52.10730000
51.59999969	-55.70238000
51.63999969	-50.31281000
51.67999969	-50.31281000
51.71999969	-50.31281000
51.75999969	-53.90789000
51.79999969	-55.70238000
51.83999968	-53.90789000
51.87999968	-52.10730000
51.91999968	-53.90789000
51.95999968	-50.31281000
51.99999968	-48.51222000
52.03999968	-43.12265000
52.07999968	-43.12265000
52.11999968	-35.93859000
52.15999968	-30.54292000
52.19999968	-19.76379000
52.23999968	-8.98464900
52.27999968	3.58897700
52.31999968	16.16870000
52.35999968	32.34352000
52.39999968	48.51222000
52.43999968	64.68703000
52.47999968	80.86184000
52.51999968	100.62560000
52.55999968	118.59490000
52.59999968	140.15930000
52.63999968	150.94450000
52.67999968	156.33410000
52.71999968	154.53350000
52.75999968	143.75440000
52.79999968	131.17470000
52.83999968	122.19000000
52.87999968	113.20540000
52.91999968	106.01520000
52.95999968	97.03055000
52.99999968	89.84650000
53.03999968	79.06125000
53.07999968	68.28211000
53.11999968	55.70238000
53.15999968	44.92325000
53.19999968	34.13800000
53.23999968	21.55827000
53.27999968	7.18405700
53.31999968	-7.18405700
53.35999968	-21.55827000
53.39999968	-37.73308000
53.43999968	-53.90789000
53.47999967	-66.48762000
53.51999967	-79.06125000
53.55999967	-86.25141000
53.59999967	-91.64098000
53.63999967	-91.64098000
53.67999967	-93.44157000
53.71999967	-80.86184000
53.75999967	-75.47227000
53.79999967	-62.89254000
53.83999967	-61.09195000
53.87999967	-57.50298000
53.91999967	-57.50298000
53.95999967	-61.09195000
53.99999967	-62.89254000
54.03999967	-64.68703000
54.07999967	-66.48762000
54.11999967	-68.28211000
54.15999967	-70.07660000
54.19999967	-70.07660000
54.23999967	-68.28211000
54.27999967	-66.48762000
54.31999967	-61.09195000
54.35999967	-57.50298000
54.39999967	-48.51222000
54.43999967	-43.12265000
54.47999967	-34.13800000
54.51999967	-28.74844000
54.55999967	-23.35887000
54.59999967	-16.16870000
54.63999967	-8.98464900
54.67999967	0.00000000
54.71999967	14.37422000
54.75999967	25.15336000
54.79999967	39.52757000
54.83999967	52.10730000
54.87999967	68.28211000
54.91999967	82.65633000
54.95999967	98.83114000
54.99999967	115.00600000
55.03999967	129.38020000
55.07999967	143.75440000
55.11999967	149.14400000
55.15999966	149.14400000
55.19999966	143.75440000
55.23999966	134.76970000
55.27999966	122.19000000
55.31999966	113.20540000
55.35999966	106.01520000
55.39999966	98.83114000
55.43999966	88.04590000
55.47999966	79.06125000
55.51999966	70.07660000
55.55999966	57.50298000
55.59999966	46.71774000
55.63999966	34.13800000
55.67999966	21.55827000
55.71999966	7.18405700
55.75999966	-5.38956800
55.79999966	-19.76379000
55.83999966	-35.93859000
55.87999966	-50.31281000
55.91999966	-64.68703000
55.95999966	-75.47227000
55.99999966	-84.45692000
56.03999966	-89.84650000
56.07999966	-93.44157000
56.11999966	-93.44157000
56.15999966	-107.81580000
56.19999966	-98.83114000
56.23999966	-84.45692000
56.27999966	-82.65633000
56.31999966	-86.25141000
56.35999966	-86.25141000
56.39999966	-80.86184000
56.43999966	-75.47227000
56.47999966	-71.87719000
56.51999966	-66.48762000
56.55999966	-57.50298000
56.59999966	-52.10730000
56.63999966	-52.10730000
56.67999966	-50.31281000
56.71999966	-50.31281000
56.75999966	-50.31281000
56.79999965	-50.31281000
56.83999965	-46.71774000
56.87999965	-43.12265000
56.91999965	-41.32816000
56.95999965	-39.52757000
56.99999965	-34.13800000
57.03999965	-32.34352000
57.07999965	-23.35887000
57.11999965	-16.16870000
57.15999965	0.00000000
57.19999965	16.16870000
57.23999965	30.54292000
57.27999965	46.71774000
57.31999965	62.89254000
57.35999965	80.86184000
57.39999965	98.83114000
57.43999965	116.80040000
57.47999965	134.76970000
57.51999965	149.14400000
57.55999965	154.53350000
57.59999965	149.14400000
57.63999965	141.95990000
57.67999965	131.17470000
57.71999965	118.59490000
57.75999965	111.41090000
57.79999965	106.01520000
57.83999965	97.03055000
57.87999965	86.25141000
57.91999965	75.47227000
57.95999965	62.89254000
57.99999965	52.10730000
58.03999965	39.52757000
58.07999965	28.74844000
58.11999965	16.16870000
58.15999965	5.38956800
58.19999965	-7.18405700
58.23999965	-23.35887000
58.27999965	-39.52757000
58.31999965	-52.10730000
58.35999965	-66.48762000
58.39999965	-75.47227000
58.43999964	-84.45692000
58.47999964	-89.84650000
58.51999964	-91.64098000
58.55999964	-91.64098000
58.59999964	-86.25141000
58.63999964	-79.06125000
58.67999964	-71.87719000
58.71999964	-68.28211000
58.75999964	-64.68703000
58.79999964	-66.48762000
58.83999964	-68.28211000
58.87999964	-70.07660000
58.91999964	-71.87719000
58.95999964	-71.87719000
58.99999964	-71.87719000
59.03999964	-71.87719000
59.07999964	-71.87719000
59.11999964	-71.87719000
59.15999964	-71.87719000
59.19999964	-66.48762000
59.23999964	-61.09195000
59.27999964	-55.70238000
59.31999964	-48.51222000
59.35999964	-41.32816000
59.39999964	-34.13800000
59.43999964	-26.95395000
59.47999964	-19.76379000
59.51999964	-10.77914000
59.55999964	0.00000000
59.59999964	10.77914000
59.63999964	21.55827000
59.67999964	35.93859000
59.71999964	48.51222000
59.75999964	61.09195000
59.79999964	75.47227000
59.83999964	89.84650000
59.87999964	104.22070000
59.91999964	120.39550000
59.95999964	131.17470000
59.99999964	141.95990000
60.03999964	145.54890000
60.07999963	143.75440000
60.11999963	136.56420000
60.15999963	129.38020000
60.19999963	118.59490000
60.23999963	109.61030000
60.27999963	100.62560000
60.31999963	89.84650000
60.35999963	79.06125000
60.39999963	68.28211000
60.43999963	57.50298000
60.47999963	46.71774000
60.51999963	32.34352000
60.55999963	21.55827000
60.59999963	10.77914000
60.63999963	-1.79448800
60.67999963	-16.16870000
60.71999963	-28.74844000
60.75999963	-43.12265000
60.79999963	-57.50298000
60.83999963	-68.28211000
60.87999963	-79.06125000
60.91999963	-86.25141000
60.95999963	-91.64098000
60.99999963	-95.23605000
61.03999963	-100.62560000
61.07999963	-97.03055000
61.11999963	-93.44157000
61.15999963	-86.25141000
61.19999963	-86.25141000
61.23999963	-80.86184000
61.27999963	-77.26676000
61.31999963	-71.87719000
61.35999963	-71.87719000
61.39999963	-70.07660000
61.43999963	-71.87719000
61.47999963	-68.28211000
61.51999963	-70.07660000
61.55999963	-68.28211000
61.59999963	-66.48762000
61.63999963	-64.68703000
61.67999963	-62.89254000
61.71999962	-57.50298000
61.75999962	-52.10730000
61.79999962	-44.92325000
61.83999962	-37.73308000
61.87999962	-30.54292000
61.91999962	-23.35887000
61.95999962	-14.37422000
61.99999962	-5.38956800
62.03999962	5.38956800
62.07999962	17.96930000
62.11999962	28.74844000
62.15999962	43.12265000
62.19999962	55.70238000
62.23999962	68.28211000
62.27999962	82.65633000
62.31999962	97.03055000
62.35999962	113.20540000
62.39999962	129.38020000
62.43999962	138.36480000
62.47999962	143.75440000
62.51999962	143.75440000
62.55999962	140.15930000
62.59999962	132.97520000
62.63999962	122.19000000
62.67999962	113.20540000
62.71999962	102.42620000
62.75999962	93.44157000
62.79999962	82.65633000
62.83999962	71.87719000
62.87999962	57.50298000
62.91999962	46.71774000
62.95999962	35.93859000
62.99999962	25.15336000
63.03999962	14.37422000
63.07999962	1.79448800
63.11999962	-10.77914000
63.15999962	-23.35887000
63.19999962	-35.93859000
63.23999962	-50.31281000
63.27999962	-61.09195000
63.31999962	-71.87719000
63.35999961	-80.86184000
63.39999961	-88.04590000
63.43999961	-93.44157000
63.47999961	-95.23605000
63.51999961	-97.03055000
63.55999961	-95.23605000
63.59999961	-93.44157000
63.63999961	-88.04590000
63.67999961	-82.65633000
63.71999961	-77.26676000
63.75999961	-73.67168000
63.79999961	-71.87719000
63.83999961	-70.07660000
63.87999961	-68.28211000
63.91999961	-68.28211000
63.95999961	-70.07660000
63.99999961	-70.07660000
64.03999961	-70.07660000
64.07999961	-68.28211000
64.11999961	-66.48762000
64.15999961	-64.68703000
64.19999961	-59.29746000
64.23999961	-55.70238000
64.27999961	-48.51222000
64.31999961	-39.52757000
64.35999961	-32.34352000
64.39999961	-23.35887000
64.43999961	-14.37422000
64.47999961	-1.79448800
64.51999961	8.98464900
64.55999961	21.55827000
64.59999961	34.13800000
64.63999961	48.51222000
64.67999961	61.09195000
64.71999961	73.67168000
64.75999961	88.04590000
64.79999961	106.01520000
64.83999961	118.59490000
64.87999961	132.97520000
64.91999961	141.95990000
64.95999961	145.54890000
64.99999960	143.75440000
65.03999960	138.36480000
65.07999960	129.38020000
65.11999960	116.80040000
65.15999960	109.61030000
65.19999960	100.62560000
65.23999960	89.84650000
65.27999960	79.06125000
65.31999960	64.68703000
65.35999960	53.90789000
65.39999960	41.32816000
65.43999960	28.74844000
65.47999960	19.76379000
65.51999960	7.18405700
65.55999960	-3.58897700
65.59999960	-16.16870000
65.63999960	-30.54292000
65.67999960	-43.12265000
65.71999960	-55.70238000
65.75999960	-68.28211000
65.79999960	-77.26676000
65.83999960	-86.25141000
65.87999960	-89.84650000
65.91999960	-93.44157000
65.95999960	-93.44157000
65.99999960	-107.81580000
66.03999960	-100.62560000
66.07999960	-86.25141000
66.11999960	-82.65633000
66.15999960	-88.04590000
66.19999960	-88.04590000
66.23999960	-86.25141000
66.27999960	-80.86184000
66.31999960	-79.06125000
66.35999960	-73.67168000
66.39999960	-66.48762000
66.43999960	-59.29746000
66.47999960	-59.29746000
66.51999960	-59.29746000
66.55999960	-55.70238000
66.59999960	-55.70238000
66.63999959	-52.10730000
66.67999959	-50.31281000
66.71999959	-44.92325000
66.75999959	-46.71774000
66.79999959	-44.92325000
66.83999959	-41.32816000
66.87999959	-32.34352000
66.91999959	-23.35887000
66.95999959	-10.77914000
66.99999959	3.58897700
67.03999959	19.76379000
67.07999959	35.93859000
67.11999959	50.31281000
67.15999959	68.28211000
67.19999959	86.25141000
67.23999959	104.22070000
67.27999959	122.19000000
67.31999959	134.76970000
67.35999959	147.34950000
67.39999959	149.14400000
67.43999959	143.75440000
67.47999959	140.15930000
67.51999959	132.97520000
67.55999959	118.59490000
67.59999959	109.61030000
67.63999959	102.42620000
67.67999959	93.44157000
67.71999959	84.45692000
67.75999959	70.07660000
67.79999959	57.50298000
67.83999959	48.51222000
67.87999959	35.93859000
67.91999959	23.35887000
67.95999959	10.77914000
67.99999959	-5.38956800
68.03999959	-35.93859000
68.07999959	-66.48762000
68.11999959	-68.28211000
68.15999959	-64.68703000
68.19999959	-68.28211000
68.23999959	-70.07660000
68.27999959	-61.09195000
68.31999958	-46.71774000
68.35999958	-35.93859000
68.39999958	-43.12265000
68.43999958	-62.89254000
68.47999958	-71.87719000
68.51999958	-71.87719000
68.55999958	-75.47227000
68.59999958	-86.25141000
68.63999958	-97.03055000
68.67999958	-97.03055000
68.71999958	-86.25141000
68.75999958	-80.86184000
68.79999958	-86.25141000
68.83999958	-91.64098000
68.87999958	-88.04590000
68.91999958	-82.65633000
68.95999958	-77.26676000
68.99999958	-75.47227000
69.03999958	-73.67168000
69.07999958	-66.48762000
69.11999958	-53.90789000
69.15999958	-43.12265000
69.19999958	-37.73308000
69.23999958	-28.74844000
69.27999958	-17.96930000
69.31999958	-7.18405700
69.35999958	3.58897700
69.39999958	12.57363000
69.43999958	16.16870000
69.47999958	23.35887000
69.51999958	32.34352000
69.55999958	43.12265000
69.59999958	50.31281000
69.63999958	61.09195000
69.67999958	77.26676000
69.71999958	95.23605000
69.75999958	115.00600000
69.79999958	129.38020000
69.83999958	141.95990000
69.87999958	149.14400000
69.91999958	149.14400000
69.95999957	141.95990000
69.99999957	129.38020000
70.03999957	116.80040000
70.07999957	109.61030000
70.11999957	102.42620000
70.15999957	93.44157000
70.19999957	86.25141000
70.23999957	75.47227000
70.27999957	64.68703000
70.31999957	53.90789000
70.35999957	41.32816000
70.39999957	26.95395000
70.43999957	10.77914000
70.47999957	-3.58897700
70.51999957	-19.76379000
70.55999957	-35.93859000
70.59999957	-50.31281000
70.63999957	-62.89254000
70.67999957	-73.67168000
70.71999957	-82.65633000
70.75999957	-89.84650000
70.79999957	-95.23605000
70.83999957	-97.03055000
70.87999957	-100.62560000
70.91999957	-95.23605000
70.95999957	-89.84650000
70.99999957	-86.25141000
71.03999957	-84.45692000
71.07999957	-82.65633000
71.11999957	-80.86184000
71.15999957	-80.86184000
71.19999957	-79.06125000
71.23999957	-77.26676000
71.27999957	-77.26676000
71.31999957	-73.67168000
71.35999957	-73.67168000
71.39999957	-71.87719000
71.43999957	-70.07660000
71.47999957	-68.28211000
71.51999957	-66.48762000
71.55999957	-62.89254000
71.59999956	-57.50298000
71.63999956	-52.10730000
71.67999956	-43.12265000
71.71999956	-35.93859000
71.75999956	-25.15336000
71.79999956	-14.37422000
71.83999956	-3.58897700
71.87999956	7.18405700
71.91999956	19.76379000
71.95999956	30.54292000
71.99999956	43.12265000
72.03999956	53.90789000
72.07999956	64.68703000
72.11999956	77.26676000
72.15999956	89.84650000
72.19999956	102.42620000
72.23999956	118.59490000
72.27999956	129.38020000
72.31999956	134.76970000
72.35999956	136.56420000
72.39999956	136.56420000
72.43999956	132.97520000
72.47999956	127.57960000
72.51999956	115.00600000
72.55999956	106.01520000
72.59999956	93.44157000
72.63999956	84.45692000
72.67999956	71.87719000
72.71999956	61.09195000
72.75999956	48.51222000
72.79999956	35.93859000
72.83999956	26.95395000
72.87999956	14.37422000
72.91999956	1.79448800
72.95999956	-7.18405700
72.99999956	-17.96930000
73.03999956	-32.34352000
73.07999956	-43.12265000
73.11999956	-55.70238000
73.15999956	-68.28211000
73.19999956	-79.06125000
73.23999955	-86.25141000
73.27999955	-91.64098000
73.31999955	-97.03055000
73.35999955	-98.83114000
73.39999955	-97.03055000
73.43999955	-95.23605000
73.47999955	-93.44157000
73.51999955	-82.65633000
73.55999955	-77.26676000
73.59999955	-66.48762000
73.63999955	-68.28211000
73.67999955	-66.48762000
73.71999955	-68.28211000
73.75999955	-68.28211000
73.79999955	-68.28211000
73.83999955	-70.07660000
73.87999955	-68.28211000
73.91999955	-68.28211000
73.95999955	-68.28211000
73.99999955	-64.68703000
74.03999955	-64.68703000
74.07999955	-57.50298000
74.11999955	-52.10730000
74.15999955	-43.12265000
74.19999955	-35.93859000
74.23999955	-25.15336000
74.27999955	-17.96930000
74.31999955	-8.98464900
74.35999955	3.58897700
74.39999955	14.37422000
74.43999955	26.95395000
74.47999955	44.92325000
74.51999955	57.50298000
74.55999955	71.87719000
74.59999955	86.25141000
74.63999955	102.42620000
74.67999955	120.39550000
74.71999955	136.56420000
74.75999955	145.54890000
74.79999955	154.53350000
74.83999955	150.94450000
74.87999954	143.75440000
74.91999954	131.17470000
74.95999954	122.19000000
74.99999954	111.41090000
75.03999954	102.42620000
75.07999954	93.44157000
75.11999954	82.65633000
75.15999954	70.07660000
75.19999954	57.50298000
75.23999954	46.71774000
75.27999954	34.13800000
75.31999954	23.35887000
75.35999954	14.37422000
75.39999954	1.79448800
75.43999954	-10.77914000
75.47999954	-25.15336000
75.51999954	-39.52757000
75.55999954	-55.70238000
75.59999954	-66.48762000
75.63999954	-75.47227000
75.67999954	-84.45692000
75.71999954	-89.84650000
75.75999954	-93.44157000
75.79999954	-91.64098000
75.83999954	-104.22070000
75.87999954	-100.62560000
75.91999954	-86.25141000
75.95999954	-80.86184000
75.99999954	-86.25141000
76.03999954	-88.04590000
76.07999954	-84.45692000
76.11999954	-80.86184000
76.15999954	-80.86184000
76.19999954	-82.65633000
76.23999954	-79.06125000
76.27999954	-75.47227000
76.31999954	-75.47227000
76.35999954	-73.67168000
76.39999954	-70.07660000
76.43999954	-66.48762000
76.47999954	-62.89254000
76.51999953	-55.70238000
76.55999953	-46.71774000
76.59999953	-39.52757000
76.63999953	-32.34352000
76.67999953	-25.15336000
76.71999953	-16.16870000
76.75999953	-7.18405700
76.79999953	0.00000000
76.83999953	7.18405700
76.87999953	0.00000000
76.91999953	-1.79448800
76.95999953	21.55827000
76.99999953	57.50298000
77.03999953	71.87719000
77.07999953	84.45692000
77.11999953	116.80040000
77.15999953	156.33410000
77.19999953	172.50890000
77.23999953	161.72370000
77.27999953	149.14400000
77.31999953	143.75440000
77.35999953	136.56420000
77.39999953	125.78510000
77.43999953	104.22070000
77.47999953	88.04590000
77.51999953	82.65633000
77.55999953	82.65633000
77.59999953	73.67168000
77.63999953	53.90789000
77.67999953	41.32816000
77.71999953	30.54292000
77.75999953	25.15336000
77.79999953	12.57363000
77.83999953	-1.79448800
77.87999953	-12.57363000
77.91999953	-21.55827000
77.95999953	-28.74844000
77.99999953	-37.73308000
78.03999953	-46.71774000
78.07999953	-57.50298000
78.11999953	-64.68703000
78.15999952	-68.28211000
78.19999952	-71.87719000
78.23999952	-79.06125000
78.27999952	-88.04590000
78.31999952	-95.23605000
78.35999952	-95.23605000
78.39999952	-97.03055000
78.43999952	-100.62560000
78.47999952	-102.42620000
78.51999952	-98.83114000
78.55999952	-93.44157000
78.59999952	-89.84650000
78.63999952	-86.25141000
78.67999952	-84.45692000
78.71999952	-80.86184000
78.75999952	-79.06125000
78.79999952	-75.47227000
78.83999952	-75.47227000
78.87999952	-66.48762000
78.91999952	-57.50298000
78.95999952	-44.92325000
78.99999952	-41.32816000
79.03999952	-35.93859000
79.07999952	-28.74844000
79.11999952	-23.35887000
79.15999952	-19.76379000
79.19999952	-17.96930000
79.23999952	-14.37422000
79.27999952	-8.98464900
79.31999952	-1.79448800
79.35999952	7.18405700
79.39999952	17.96930000
79.43999952	28.74844000
79.47999952	44.92325000
79.51999952	62.89254000
79.55999952	80.86184000
79.59999952	97.03055000
79.63999952	115.00600000
79.67999952	131.17470000
79.71999952	141.95990000
79.75999952	147.34950000
79.79999952	147.34950000
79.83999951	143.75440000
79.87999951	134.76970000
79.91999951	122.19000000
79.95999951	109.61030000
79.99999951	98.83114000
80.03999951	88.04590000
80.07999951	75.47227000
80.11999951	64.68703000
80.15999951	52.10730000
80.19999951	41.32816000
80.23999951	28.74844000
80.27999951	16.16870000
80.31999951	1.79448800
80.35999951	-8.98464900
80.39999951	-21.55827000
80.43999951	-35.93859000
80.47999951	-46.71774000
80.51999951	-59.29746000
80.55999951	-70.07660000
80.59999951	-79.06125000
80.63999951	-84.45692000
80.67999951	-89.84650000
80.71999951	-95.23605000
80.75999951	-93.44157000
80.79999951	-91.64098000
80.83999951	-88.04590000
80.87999951	-84.45692000
80.91999951	-80.86184000
80.95999951	-75.47227000
80.99999951	-70.07660000
81.03999951	-68.28211000
81.07999951	-70.07660000
81.11999951	-70.07660000
81.15999951	-71.87719000
81.19999951	-73.67168000
81.23999951	-73.67168000
81.27999951	-73.67168000
81.31999951	-73.67168000
81.35999951	-71.87719000
81.39999951	-68.28211000
81.43999951	-64.68703000
81.47999950	-59.29746000
81.51999950	-52.10730000
81.55999950	-44.92325000
81.59999950	-35.93859000
81.63999950	-26.95395000
81.67999950	-16.16870000
81.71999950	-7.18405700
81.75999950	3.58897700
81.79999950	14.37422000
81.83999950	26.95395000
81.87999950	39.52757000
81.91999950	52.10730000
81.95999950	64.68703000
81.99999950	79.06125000
82.03999950	95.23605000
82.07999950	106.01520000
82.11999950	120.39550000
82.15999950	131.17470000
82.19999950	140.15930000
82.23999950	143.75440000
82.27999950	143.75440000
82.31999950	134.76970000
82.35999950	125.78510000
82.39999950	115.00600000
82.43999950	107.81580000
82.47999950	95.23605000
82.51999950	82.65633000
82.55999950	71.87719000
82.59999950	57.50298000
82.63999950	46.71774000
82.67999950	34.13800000
82.71999950	21.55827000
82.75999950	10.77914000
82.79999950	0.00000000
82.83999950	-10.77914000
82.87999950	-23.35887000
82.91999950	-35.93859000
82.95999950	-50.31281000
82.99999950	-61.09195000
83.03999950	-70.07660000
83.07999950	-79.06125000
83.11999949	-86.25141000
83.15999949	-89.84650000
83.19999949	-93.44157000
83.23999949	-91.64098000
83.27999949	-93.44157000
83.31999949	-91.64098000
83.35999949	-86.25141000
83.39999949	-80.86184000
83.43999949	-75.47227000
83.47999949	-71.87719000
83.51999949	-66.48762000
83.55999949	-66.48762000
83.59999949	-64.68703000
83.63999949	-62.89254000
83.67999949	-57.50298000
83.71999949	-55.70238000
83.75999949	-53.90789000
83.79999949	-53.90789000
83.83999949	-53.90789000
83.87999949	-52.10730000
83.91999949	-50.31281000
83.95999949	-46.71774000
83.99999949	-43.12265000
84.03999949	-37.73308000
84.07999949	-30.54292000
84.11999949	-23.35887000
84.15999949	-16.16870000
84.19999949	-7.18405700
84.23999949	1.79448800
84.27999949	14.37422000
84.31999949	28.74844000
84.35999949	44.92325000
84.39999949	61.09195000
84.43999949	77.26676000
84.47999949	97.03055000
84.51999949	115.00600000
84.55999949	132.97520000
84.59999949	147.34950000
84.63999949	156.33410000
84.67999949	158.12860000
84.71999949	149.14400000
84.75999948	136.56420000
84.79999948	122.19000000
84.83999948	115.00600000
84.87999948	107.81580000
84.91999948	98.83114000
84.95999948	88.04590000
84.99999948	75.47227000
85.03999948	62.89254000
85.07999948	50.31281000
85.11999948	37.73308000
85.15999948	26.95395000
85.19999948	16.16870000
85.23999948	5.38956800
85.27999948	-7.18405700
85.31999948	-21.55827000
85.35999948	-37.73308000
85.39999948	-52.10730000
85.43999948	-64.68703000
85.47999948	-75.47227000
85.51999948	-84.45692000
85.55999948	-88.04590000
85.59999948	-89.84650000
85.63999948	-88.04590000
85.67999948	-97.03055000
85.71999948	-93.44157000
85.75999948	-79.06125000
85.79999948	-71.87719000
85.83999948	-77.26676000
85.87999948	-75.47227000
85.91999948	-73.67168000
85.95999948	-68.28211000
85.99999948	-70.07660000
86.03999948	-71.87719000
86.07999948	-70.07660000
86.11999948	-68.28211000
86.15999948	-68.28211000
86.19999948	-66.48762000
86.23999948	-62.89254000
86.27999948	-61.09195000
86.31999948	-57.50298000
86.35999948	-52.10730000
86.39999947	-43.12265000
86.43999947	-37.73308000
86.47999947	-32.34352000
86.51999947	-25.15336000
86.55999947	-16.16870000
86.59999947	-8.98464900
86.63999947	0.00000000
86.67999947	12.57363000
86.71999947	23.35887000
86.75999947	35.93859000
86.79999947	46.71774000
86.83999947	57.50298000
86.87999947	71.87719000
86.91999947	86.25141000
86.95999947	98.83114000
86.99999947	115.00600000
87.03999947	127.57960000
87.07999947	140.15930000
87.11999947	141.95990000
87.15999947	140.15930000
87.19999947	138.36480000
87.23999947	131.17470000
87.27999947	118.59490000
87.31999947	107.81580000
87.35999947	98.83114000
87.39999947	89.84650000
87.43999947	75.47227000
87.47999947	61.09195000
87.51999947	48.51222000
87.55999947	37.73308000
87.59999947	25.15336000
87.63999947	14.37422000
87.67999947	1.79448800
87.71999947	-8.98464900
87.75999947	-21.55827000
87.79999947	-34.13800000
87.83999947	-46.71774000
87.87999947	-57.50298000
87.91999947	-68.28211000
87.95999947	-79.06125000
87.99999947	-86.25141000
88.03999946	-91.64098000
88.07999946	-95.23605000
88.11999946	-95.23605000
88.15999946	-93.44157000
88.19999946	-91.64098000
88.23999946	-84.45692000
88.27999946	-77.26676000
88.31999946	-70.07660000
88.35999946	-66.48762000
88.39999946	-68.28211000
88.43999946	-66.48762000
88.47999946	-66.48762000
88.51999946	-68.28211000
88.55999946	-68.28211000
88.59999946	-70.07660000
88.63999946	-68.28211000
88.67999946	-68.28211000
88.71999946	-66.48762000
88.75999946	-64.68703000
88.79999946	-57.50298000
88.83999946	-52.10730000
88.87999946	-44.92325000
88.91999946	-35.93859000
88.95999946	-28.74844000
88.99999946	-21.55827000
89.03999946	-10.77914000
89.07999946	-1.79448800
89.11999946	8.98464900
89.15999946	21.55827000
89.19999946	34.13800000
89.23999946	46.71774000
89.27999946	57.50298000
89.31999946	71.87719000
89.35999946	86.25141000
89.39999946	102.42620000
89.43999946	115.00600000
89.47999946	131.17470000
89.51999946	143.75440000
89.55999946	149.14400000
89.59999946	149.14400000
89.63999946	141.95990000
89.67999945	132.97520000
89.71999945	120.39550000
89.75999945	111.41090000
89.79999945	100.62560000
89.83999945	91.64098000
89.87999945	79.06125000
89.91999945	66.48762000
89.95999945	53.90789000
89.99999945	43.12265000
90.03999945	30.54292000
90.07999945	19.76379000
90.11999945	8.98464900
90.15999945	-1.79448800
90.19999945	-14.37422000
90.23999945	-28.74844000
90.27999945	-43.12265000
90.31999945	-53.90789000
90.35999945	-66.48762000
90.39999945	-77.26676000
90.43999945	-84.45692000
90.47999945	-89.84650000
90.51999945	-93.44157000
90.55999945	-100.62560000
90.59999945	-97.03055000
90.63999945	-93.44157000
90.67999945	-86.25141000
90.71999945	-86.25141000
90.75999945	-84.45692000
90.79999945	-84.45692000
90.83999945	-80.86184000
90.87999945	-80.86184000
90.91999945	-79.06125000
90.95999945	-79.06125000
90.99999945	-79.06125000
91.03999945	-75.47227000
91.07999945	-73.67168000
91.11999945	-71.87719000
91.15999945	-68.28211000
91.19999945	-64.68703000
91.23999945	-59.29746000
91.27999945	-50.31281000
91.31999945	-43.12265000
91.35999944	-37.73308000
91.39999944	-28.74844000
91.43999944	-21.55827000
91.47999944	-12.57363000
91.51999944	-3.58897700
91.55999944	7.18405700
91.59999944	16.16870000
91.63999944	26.95395000
91.67999944	37.73308000
91.71999944	48.51222000
91.75999944	59.29746000
91.79999944	71.87719000
91.83999944	84.45692000
91.87999944	97.03055000
91.91999944	111.41090000
91.95999944	123.99060000
91.99999944	132.97520000
92.03999944	134.76970000
92.07999944	134.76970000
92.11999944	132.97520000
92.15999944	127.57960000
92.19999944	120.39550000
92.23999944	109.61030000
92.27999944	97.03055000
92.31999944	86.25141000
92.35999944	73.67168000
92.39999944	61.09195000
92.43999944	48.51222000
92.47999944	35.93859000
92.51999944	25.15336000
92.55999944	14.37422000
92.59999944	3.58897700
92.63999944	-8.98464900
92.67999944	-21.55827000
92.71999944	-32.34352000
92.75999944	-43.12265000
92.79999944	-55.70238000
92.83999944	-68.28211000
92.87999944	-77.26676000
92.91999944	-86.25141000
92.95999944	-91.64098000
92.99999943	-95.23605000
93.03999943	-97.03055000
93.07999943	-97.03055000
93.11999943	-95.23605000
93.15999943	-93.44157000
93.19999943	-89.84650000
93.23999943	-88.04590000
93.27999943	-80.86184000
93.31999943	-79.06125000
93.35999943	-73.67168000
93.39999943	-73.67168000
93.43999943	-73.67168000
93.47999943	-71.87719000
93.51999943	-71.87719000
93.55999943	-71.87719000
93.59999943	-71.87719000
93.63999943	-68.28211000
93.67999943	-64.68703000
93.71999943	-61.09195000
93.75999943	-55.70238000
93.79999943	-50.31281000
93.83999943	-43.12265000
93.87999943	-35.93859000
93.91999943	-26.95395000
93.95999943	-16.16870000
93.99999943	-7.18405700
94.03999943	1.79448800
94.07999943	14.37422000
94.11999943	26.95395000
94.15999943	39.52757000
94.19999943	50.31281000
94.23999943	62.89254000
94.27999943	77.26676000
94.31999943	91.64098000
94.35999943	106.01520000
94.39999943	122.19000000
94.43999943	132.97520000
94.47999943	140.15930000
94.51999943	143.75440000
94.55999943	141.95990000
94.59999943	134.76970000
94.63999942	127.57960000
94.67999942	115.00600000
94.71999942	106.01520000
94.75999942	97.03055000
94.79999942	82.65633000
94.83999942	71.87719000
94.87999942	57.50298000
94.91999942	46.71774000
94.95999942	34.13800000
94.99999942	21.55827000
95.03999942	12.57363000
95.07999942	0.00000000
95.11999942	-10.77914000
95.15999942	-23.35887000
95.19999942	-35.93859000
95.23999942	-48.51222000
95.27999942	-61.09195000
95.31999942	-71.87719000
95.35999942	-80.86184000
95.39999942	-88.04590000
95.43999942	-93.44157000
95.47999942	-91.64098000
95.51999942	-104.22070000
95.55999942	-104.22070000
95.59999942	-89.84650000
95.63999942	-84.45692000
95.67999942	-88.04590000
95.71999942	-86.25141000
95.75999942	-88.04590000
95.79999942	-73.67168000
95.83999942	-75.47227000
95.87999942	-71.87719000
95.91999942	-70.07660000
95.95999942	-68.28211000
95.99999942	-68.28211000
96.03999942	-68.28211000
96.07999942	-66.48762000
96.11999942	-64.68703000
96.15999942	-62.89254000
96.19999942	-57.50298000
96.23999942	-50.31281000
96.27999941	-44.92325000
96.31999941	-39.52757000
96.35999941	-32.34352000
96.39999941	-23.35887000
96.43999941	-14.37422000
96.47999941	-5.38956800
96.51999941	5.38956800
96.55999941	16.16870000
96.59999941	28.74844000
96.63999941	41.32816000
96.67999941	53.90789000
96.71999941	68.28211000
96.75999941	82.65633000
96.79999941	98.83114000
96.83999941	115.00600000
96.87999941	129.38020000
96.91999941	134.76970000
96.95999941	143.75440000
96.99999941	149.14400000
97.03999941	140.15930000
97.07999941	132.97520000
97.11999941	122.19000000
97.15999941	115.00600000
97.19999941	102.42620000
97.23999941	88.04590000
97.27999941	77.26676000
97.31999941	66.48762000
97.35999941	52.10730000
97.39999941	39.52757000
97.43999941	28.74844000
97.47999941	17.96930000
97.51999941	7.18405700
97.55999941	-5.38956800
97.59999941	-16.16870000
97.63999941	-26.95395000
97.67999941	-41.32816000
97.71999941	-53.90789000
97.75999941	-64.68703000
97.79999941	-73.67168000
97.83999941	-84.45692000
97.87999941	-88.04590000
97.91999940	-93.44157000
97.95999940	-93.44157000
97.99999940	-93.44157000
98.03999940	-88.04590000
98.07999940	-82.65633000
98.11999940	-77.26676000
98.15999940	-75.47227000
98.19999940	-71.87719000
98.23999940	-71.87719000
98.27999940	-71.87719000
98.31999940	-71.87719000
98.35999940	-71.87719000
98.39999940	-70.07660000
98.43999940	-68.28211000
98.47999940	-64.68703000
98.51999940	-62.89254000
98.55999940	-61.09195000
98.59999940	-57.50298000
98.63999940	-53.90789000
98.67999940	-48.51222000
98.71999940	-43.12265000
98.75999940	-35.93859000
98.79999940	-30.54292000
98.83999940	-25.15336000
98.87999940	-17.96930000
98.91999940	-12.57363000
98.95999940	-3.58897700
98.99999940	5.38956800
99.03999940	17.96930000
99.07999940	32.34352000
99.11999940	46.71774000
99.15999940	62.89254000
99.19999940	80.86184000
99.23999940	98.83114000
99.27999940	118.59490000
99.31999940	134.76970000
99.35999940	149.14400000
99.39999940	156.33410000
99.43999940	154.53350000
99.47999940	145.54890000
99.51999940	134.76970000
99.55999939	122.19000000
99.59999939	113.20540000
99.63999939	106.01520000
99.67999939	93.44157000
99.71999939	84.45692000
99.75999939	73.67168000
99.79999939	61.09195000
99.83999939	48.51222000
99.87999939	35.93859000
99.91999939	26.95395000
99.95999939	16.16870000
99.99999939	3.58897700
100.03999939	-8.98464900
100.07999939	-23.35887000
100.11999939	-37.73308000
100.15999939	-52.10730000
100.19999939	-66.48762000
100.23999939	-75.47227000
100.27999939	-84.45692000
100.31999939	-89.84650000
100.35999939	-93.44157000
100.39999939	-100.62560000
100.43999939	-93.44157000
100.47999939	-89.84650000
100.51999939	-71.87719000
100.55999939	-68.28211000
100.59999939	-59.29746000
100.63999939	-59.29746000
100.67999939	-59.29746000
100.71999939	-59.29746000
100.75999939	-61.09195000
100.79999939	-64.68703000
100.83999939	-64.68703000
100.87999939	-64.68703000
100.91999939	-64.68703000
100.95999939	-66.48762000
100.99999939	-64.68703000
101.03999939	-64.68703000
101.07999939	-59.29746000
101.11999939	-52.10730000
101.15999939	-44.92325000
101.19999938	-37.73308000
101.23999938	-28.74844000
101.27999938	-23.35887000
101.31999938	-17.96930000
101.35999938	-8.98464900
101.39999938	0.00000000
101.43999938	14.37422000
101.47999938	26.95395000
101.51999938	39.52757000
101.55999938	53.90789000
101.59999938	66.48762000
101.63999938	82.65633000
101.67999938	100.62560000
101.71999938	118.59490000
101.75999938	136.56420000
101.79999938	149.14400000
101.83999938	154.53350000
101.87999938	152.73900000
101.91999938	143.75440000
101.95999938	132.97520000
101.99999938	122.19000000
102.03999938	115.00600000
102.07999938	104.22070000
102.11999938	95.23605000
102.15999938	84.45692000
102.19999938	75.47227000
102.23999938	62.89254000
102.27999938	50.31281000
102.31999938	37.73308000
102.35999938	28.74844000
102.39999938	17.96930000
102.43999938	5.38956800
102.47999938	-8.98464900
102.51999938	-23.35887000
102.55999938	-39.52757000
102.59999938	-52.10730000
102.63999938	-64.68703000
102.67999938	-75.47227000
102.71999938	-82.65633000
102.75999938	-88.04590000
102.79999938	-91.64098000
102.83999937	-93.44157000
102.87999937	-93.44157000
102.91999937	-89.84650000
102.95999937	-88.04590000
102.99999937	-86.25141000
103.03999937	-82.65633000
103.07999937	-80.86184000
103.11999937	-79.06125000
103.15999937	-73.67168000
103.19999937	-70.07660000
103.23999937	-64.68703000
103.27999937	-64.68703000
103.31999937	-62.89254000
103.35999937	-61.09195000
103.39999937	-61.09195000
103.43999937	-61.09195000
103.47999937	-59.29746000
103.51999937	-55.70238000
103.55999937	-50.31281000
103.59999937	-44.92325000
103.63999937	-41.32816000
103.67999937	-35.93859000
103.71999937	-28.74844000
103.75999937	-19.76379000
103.79999937	-10.77914000
103.83999937	0.00000000
103.87999937	12.57363000
103.91999937	25.15336000
103.95999937	35.93859000
103.99999937	50.31281000
104.03999937	62.89254000
104.07999937	77.26676000
104.11999937	93.44157000
104.15999937	106.01520000
104.19999937	122.19000000
104.23999937	134.76970000
104.27999937	143.75440000
104.31999937	145.54890000
104.35999937	143.75440000
104.39999937	136.56420000
104.43999937	125.78510000
104.47999937	115.00600000
104.51999936	107.81580000
104.55999936	98.83114000
104.59999936	86.25141000
104.63999936	75.47227000
104.67999936	62.89254000
104.71999936	50.31281000
104.75999936	37.73308000
104.79999936	26.95395000
104.83999936	16.16870000
104.87999936	5.38956800
104.91999936	-7.18405700
104.95999936	-21.55827000
104.99999936	-34.13800000
105.03999936	-46.71774000
105.07999936	-59.29746000
105.11999936	-70.07660000
105.15999936	-79.06125000
105.19999936	-86.25141000
105.23999936	-91.64098000
105.27999936	-93.44157000
105.31999936	-89.84650000
105.35999936	-100.62560000
105.39999936	-97.03055000
105.43999936	-75.47227000
105.47999936	-70.07660000
105.51999936	-68.28211000
105.55999936	-71.87719000
105.59999936	-70.07660000
105.63999936	-66.48762000
105.67999936	-66.48762000
105.71999936	-70.07660000
105.75999936	-68.28211000
105.79999936	-68.28211000
105.83999936	-70.07660000
105.87999936	-70.07660000
105.91999936	-66.48762000
105.95999936	-64.68703000
105.99999936	-61.09195000
106.03999936	-53.90789000
106.07999936	-44.92325000
106.11999936	-39.52757000
106.15999935	-30.54292000
106.19999935	-25.15336000
106.23999935	-14.37422000
106.27999935	-7.18405700
106.31999935	7.18405700
106.35999935	19.76379000
106.39999935	34.13800000
106.43999935	46.71774000
106.47999935	59.29746000
106.51999935	71.87719000
106.55999935	88.04590000
106.59999935	102.42620000
106.63999935	118.59490000
106.67999935	132.97520000
106.71999935	143.75440000
106.75999935	150.94450000
106.79999935	149.14400000
106.83999935	136.56420000
106.87999935	131.17470000
106.91999935	122.19000000
106.95999935	109.61030000
106.99999935	100.62560000
107.03999935	91.64098000
107.07999935	82.65633000
107.11999935	70.07660000
107.15999935	55.70238000
107.19999935	44.92325000
107.23999935	32.34352000
107.27999935	21.55827000
107.31999935	10.77914000
107.35999935	-1.79448800
107.39999935	-14.37422000
107.43999935	-28.74844000
107.47999935	-41.32816000
107.51999935	-53.90789000
107.55999935	-64.68703000
107.59999935	-75.47227000
107.63999935	-84.45692000
107.67999935	-89.84650000
107.71999935	-93.44157000
107.75999935	-95.23605000
107.79999934	-93.44157000
107.83999934	-93.44157000
107.87999934	-88.04590000
107.91999934	-82.65633000
107.95999934	-79.06125000
107.99999934	-68.28211000
108.03999934	-62.89254000
108.07999934	-59.29746000
108.11999934	-61.09195000
108.15999934	-59.29746000
108.19999934	-61.09195000
108.23999934	-61.09195000
108.27999934	-61.09195000
108.31999934	-62.89254000
108.35999934	-61.09195000
108.39999934	-59.29746000
108.43999934	-57.50298000
108.47999934	-52.10730000
108.51999934	-48.51222000
108.55999934	-41.32816000
108.59999934	-34.13800000
108.63999934	-26.95395000
108.67999934	-21.55827000
108.71999934	-21.55827000
108.75999934	-19.76379000
108.79999934	-14.37422000
108.83999934	0.00000000
108.87999934	23.35887000
108.91999934	50.31281000
108.95999934	79.06125000
108.99999934	109.61030000
109.03999934	138.36480000
109.07999934	165.31880000
109.11999934	177.89850000
109.15999934	177.89850000
109.19999934	170.70830000
109.23999934	158.12860000
109.27999934	138.36480000
109.31999934	118.59490000
109.35999934	100.62560000
109.39999934	93.44157000
109.43999933	88.04590000
109.47999933	82.65633000
109.51999933	75.47227000
109.55999933	62.89254000
109.59999933	50.31281000
109.63999933	39.52757000
109.67999933	28.74844000
109.71999933	19.76379000
109.75999933	7.18405700
109.79999933	-1.79448800
109.83999933	-12.57363000
109.87999933	-23.35887000
109.91999933	-35.93859000
109.95999933	-50.31281000
109.99999933	-57.50298000
110.03999933	-64.68703000
110.07999933	-70.07660000
110.11999933	-75.47227000
110.15999933	-82.65633000
110.19999933	-88.04590000
110.23999933	-97.03055000
110.27999933	-95.23605000
110.31999933	-95.23605000
110.35999933	-91.64098000
110.39999933	-91.64098000
110.43999933	-88.04590000
110.47999933	-86.25141000
110.51999933	-79.06125000
110.55999933	-73.67168000
110.59999933	-68.28211000
110.63999933	-68.28211000
110.67999933	-66.48762000
110.71999933	-64.68703000
110.75999933	-64.68703000
110.79999933	-64.68703000
110.83999933	-59.29746000
110.87999933	-53.90789000
110.91999933	-46.71774000
110.95999933	-37.73308000
110.99999933	-30.54292000
111.03999933	-25.15336000
111.07999932	-17.96930000
111.11999932	-14.37422000
111.15999932	-7.18405700
111.19999932	0.00000000
111.23999932	7.18405700
111.27999932	17.96930000
111.31999932	28.74844000
111.35999932	41.32816000
111.39999932	53.90789000
111.43999932	70.07660000
111.47999932	84.45692000
111.51999932	98.83114000
111.55999932	115.00600000
111.59999932	129.38020000
111.63999932	143.75440000
111.67999932	145.54890000
111.71999932	143.75440000
111.75999932	138.36480000
111.79999932	129.38020000
111.83999932	120.39550000
111.87999932	111.41090000
111.91999932	98.83114000
111.95999932	86.25141000
111.99999932	73.67168000
112.03999932	64.68703000
112.07999932	52.10730000
112.11999932	37.73308000
112.15999932	25.15336000
112.19999932	14.37422000
112.23999932	1.79448800
112.27999932	-10.77914000
112.31999932	-25.15336000
112.35999932	-37.73308000
112.39999932	-50.31281000
112.43999932	-59.29746000
112.47999932	-70.07660000
112.51999932	-79.06125000
112.55999932	-84.45692000
112.59999932	-88.04590000
112.63999932	-89.84650000
112.67999932	-93.44157000
112.71999931	-91.64098000
112.75999931	-89.84650000
112.79999931	-86.25141000
112.83999931	-80.86184000
112.87999931	-77.26676000
112.91999931	-71.87719000
112.95999931	-71.87719000
112.99999931	-71.87719000
113.03999931	-71.87719000
113.07999931	-71.87719000
113.11999931	-71.87719000
113.15999931	-71.87719000
113.19999931	-71.87719000
113.23999931	-71.87719000
113.27999931	-70.07660000
113.31999931	-66.48762000
113.35999931	-62.89254000
113.39999931	-57.50298000
113.43999931	-50.31281000
113.47999931	-41.32816000
113.51999931	-32.34352000
113.55999931	-21.55827000
113.59999931	-12.57363000
113.63999931	-1.79448800
113.67999931	7.18405700
113.71999931	19.76379000
113.75999931	30.54292000
113.79999931	43.12265000
113.83999931	55.70238000
113.87999931	68.28211000
113.91999931	80.86184000
113.95999931	95.23605000
113.99999931	111.41090000
114.03999931	127.57960000
114.07999931	136.56420000
114.11999931	143.75440000
114.15999931	145.54890000
114.19999931	143.75440000
114.23999931	134.76970000
114.27999931	125.78510000
114.31999931	113.20540000
114.35999930	104.22070000
114.39999930	93.44157000
114.43999930	82.65633000
114.47999930	71.87719000
114.51999930	57.50298000
114.55999930	46.71774000
114.59999930	35.93859000
114.63999930	25.15336000
114.67999930	12.57363000
114.71999930	3.58897700
114.75999930	-8.98464900
114.79999930	-21.55827000
114.83999930	-35.93859000
114.87999930	-48.51222000
114.91999930	-61.09195000
114.95999930	-71.87719000
114.99999930	-80.86184000
115.03999930	-88.04590000
115.07999930	-91.64098000
115.11999930	-95.23605000
115.15999930	-91.64098000
115.19999930	-95.23605000
115.23999930	-100.62560000
115.27999930	-77.26676000
115.31999930	-64.68703000
115.35999930	-64.68703000
115.39999930	-66.48762000
115.43999930	-64.68703000
115.47999930	-61.09195000
115.51999930	-61.09195000
115.55999930	-64.68703000
115.59999930	-64.68703000
115.63999930	-64.68703000
115.67999930	-66.48762000
115.71999930	-64.68703000
115.75999930	-64.68703000
115.79999930	-61.09195000
115.83999930	-57.50298000
115.87999930	-52.10730000
115.91999930	-43.12265000
115.95999930	-35.93859000
115.99999930	-28.74844000
116.03999929	-21.55827000
116.07999929	-10.77914000
116.11999929	-1.79448800
116.15999929	10.77914000
116.19999929	23.35887000
116.23999929	35.93859000
116.27999929	50.31281000
116.31999929	62.89254000
116.35999929	79.06125000
116.39999929	97.03055000
116.43999929	111.41090000
116.47999929	127.57960000
116.51999929	141.95990000
116.55999929	150.94450000
116.59999929	154.53350000
116.63999929	147.34950000
116.67999929	140.15930000
116.71999929	129.38020000
116.75999929	116.80040000
116.79999929	106.01520000
116.83999929	98.83114000
116.87999929	89.84650000
116.91999929	77.26676000
116.95999929	62.89254000
116.99999929	50.31281000
117.03999929	39.52757000
117.07999929	28.74844000
117.11999929	17.96930000
117.15999929	7.18405700
117.19999929	-5.38956800
117.23999929	-19.76379000
117.27999929	-32.34352000
117.31999929	-44.92325000
117.35999929	-57.50298000
117.39999929	-70.07660000
117.43999929	-77.26676000
117.47999929	-84.45692000
117.51999929	-88.04590000
117.55999929	-91.64098000
117.59999929	-88.04590000
117.63999929	-82.65633000
117.67999928	-79.06125000
117.71999928	-71.87719000
117.75999928	-68.28211000
117.79999928	-62.89254000
117.83999928	-64.68703000
117.87999928	-64.68703000
117.91999928	-66.48762000
117.95999928	-68.28211000
117.99999928	-68.28211000
118.03999928	-70.07660000
118.07999928	-70.07660000
118.11999928	-68.28211000
118.15999928	-68.28211000
118.19999928	-64.68703000
118.23999928	-59.29746000
118.27999928	-53.90789000
118.31999928	-46.71774000
118.35999928	-37.73308000
118.39999928	-32.34352000
118.43999928	-25.15336000
118.47999928	-16.16870000
118.51999928	-7.18405700
118.55999928	1.79448800
118.59999928	14.37422000
118.63999928	26.95395000
118.67999928	37.73308000
118.71999928	50.31281000
118.75999928	62.89254000
118.79999928	77.26676000
118.83999928	89.84650000
118.87999928	106.01520000
118.91999928	118.59490000
118.95999928	131.17470000
118.99999928	141.95990000
119.03999928	147.34950000
119.07999928	145.54890000
119.11999928	140.15930000
119.15999928	132.97520000
119.19999928	122.19000000
119.23999928	109.61030000
119.27999928	102.42620000
119.31999927	91.64098000
119.35999927	79.06125000
119.39999927	68.28211000
119.43999927	55.70238000
119.47999927	43.12265000
119.51999927	32.34352000
119.55999927	19.76379000
119.59999927	8.98464900
119.63999927	-3.58897700
119.67999927	-14.37422000
119.71999927	-28.74844000
119.75999927	-41.32816000
119.79999927	-53.90789000
119.83999927	-64.68703000
119.87999927	-73.67168000
119.91999927	-80.86184000
119.95999927	-88.04590000
119.99999927	-91.64098000
120.03999927	-93.44157000
120.07999927	-95.23605000
120.11999927	-93.44157000
120.15999927	-89.84650000
120.19999927	-80.86184000
120.23999927	-80.86184000
120.27999927	-79.06125000
120.31999927	-79.06125000
120.35999927	-77.26676000
120.39999927	-77.26676000
120.43999927	-75.47227000
120.47999927	-73.67168000
120.51999927	-71.87719000
120.55999927	-68.28211000
120.59999927	-64.68703000
120.63999927	-59.29746000
120.67999927	-55.70238000
120.71999927	-52.10730000
120.75999927	-44.92325000
120.79999927	-39.52757000
120.83999927	-32.34352000
120.87999927	-26.95395000
120.91999927	-19.76379000
120.95999926	-12.57363000
120.99999926	-3.58897700
121.03999926	5.38956800
121.07999926	16.16870000
121.11999926	26.95395000
121.15999926	39.52757000
121.19999926	50.31281000
121.23999926	62.89254000
121.27999926	75.47227000
121.31999926	89.84650000
121.35999926	106.01520000
121.39999926	120.39550000
121.43999926	129.38020000
121.47999926	140.15930000
121.51999926	141.95990000
121.55999926	140.15930000
121.59999926	132.97520000
121.63999926	123.99060000
121.67999926	116.80040000
121.71999926	107.81580000
121.75999926	97.03055000
121.79999926	84.45692000
121.83999926	70.07660000
121.87999926	57.50298000
121.91999926	46.71774000
121.95999926	34.13800000
121.99999926	21.55827000
122.03999926	10.77914000
122.07999926	0.00000000
122.11999926	-10.77914000
122.15999926	-23.35887000
122.19999926	-35.93859000
122.23999926	-46.71774000
122.27999926	-59.29746000
122.31999926	-68.28211000
122.35999926	-79.06125000
122.39999926	-86.25141000
122.43999926	-91.64098000
122.47999926	-93.44157000
122.51999926	-93.44157000
122.55999926	-93.44157000
122.59999925	-89.84650000
122.63999925	-88.04590000
122.67999925	-82.65633000
122.71999925	-80.86184000
122.75999925	-73.67168000
122.79999925	-71.87719000
122.83999925	-70.07660000
122.87999925	-68.28211000
122.91999925	-66.48762000
122.95999925	-66.48762000
122.99999925	-66.48762000
123.03999925	-66.48762000
123.07999925	-64.68703000
123.11999925	-62.89254000
123.15999925	-59.29746000
123.19999925	-57.50298000
123.23999925	-50.31281000
123.27999925	-44.92325000
123.31999925	-37.73308000
123.35999925	-30.54292000
123.39999925	-21.55827000
123.43999925	-14.37422000
123.47999925	-3.58897700
123.51999925	7.18405700
123.55999925	17.96930000
123.59999925	30.54292000
123.63999925	43.12265000
123.67999925	55.70238000
123.71999925	70.07660000
123.75999925	84.45692000
123.79999925	100.62560000
123.83999925	113.20540000
123.87999925	125.78510000
123.91999925	138.36480000
123.95999925	143.75440000
123.99999925	143.75440000
124.03999925	140.15930000
124.07999925	134.76970000
124.11999925	122.19000000
124.15999925	113.20540000
124.19999925	100.62560000
124.23999924	88.04590000
124.27999924	77.26676000
124.31999924	64.68703000
124.35999924	50.31281000
124.39999924	39.52757000
124.43999924	26.95395000
124.47999924	16.16870000
124.51999924	5.38956800
124.55999924	-5.38956800
124.59999924	-16.16870000
124.63999924	-30.54292000
124.67999924	-43.12265000
124.71999924	-55.70238000
124.75999924	-66.48762000
124.79999924	-75.47227000
124.83999924	-84.45692000
124.87999924	-89.84650000
124.91999924	-93.44157000
124.95999924	-95.23605000
124.99999924	-89.84650000
125.03999924	-93.44157000
125.07999924	-97.03055000
125.11999924	-79.06125000
125.15999924	-64.68703000
125.19999924	-66.48762000
125.23999924	-66.48762000
125.27999924	-70.07660000
125.31999924	-64.68703000
125.35999924	-64.68703000
125.39999924	-66.48762000
125.43999924	-68.28211000
125.47999924	-66.48762000
125.51999924	-68.28211000
125.55999924	-68.28211000
125.59999924	-64.68703000
125.63999924	-59.29746000
125.67999924	-55.70238000
125.71999924	-48.51222000
125.75999924	-37.73308000
125.79999924	-28.74844000
125.83999924	-21.55827000
125.87999923	-14.37422000
125.91999923	-3.58897700
125.95999923	7.18405700
125.99999923	17.96930000
126.03999923	30.54292000
126.07999923	43.12265000
126.11999923	55.70238000
126.15999923	68.28211000
126.19999923	80.86184000
126.23999923	97.03055000
126.27999923	113.20540000
126.31999923	127.57960000
126.35999923	140.15930000
126.39999923	145.54890000
126.43999923	149.14400000
126.47999923	143.75440000
126.51999923	134.76970000
126.55999923	123.99060000
126.59999923	115.00600000
126.63999923	104.22070000
126.67999923	91.64098000
126.71999923	79.06125000
126.75999923	70.07660000
126.79999923	55.70238000
126.83999923	41.32816000
126.87999923	28.74844000
126.91999923	21.55827000
126.95999923	10.77914000
126.99999923	0.00000000
127.03999923	-14.37422000
127.07999923	-25.15336000
127.11999923	-39.52757000
127.15999923	-52.10730000
127.19999923	-64.68703000
127.23999923	-73.67168000
127.27999923	-82.65633000
127.31999923	-88.04590000
127.35999923	-91.64098000
127.39999923	-93.44157000
127.43999923	-91.64098000
127.47999923	-88.04590000
127.51999923	-79.06125000
127.55999922	-70.07660000
127.59999922	-64.68703000
127.63999922	-62.89254000
127.67999922	-62.89254000
127.71999922	-61.09195000
127.75999922	-64.68703000
127.79999922	-64.68703000
127.83999922	-66.48762000
127.87999922	-66.48762000
127.91999922	-68.28211000
127.95999922	-68.28211000
127.99999922	-66.48762000
128.03999922	-62.89254000
128.07999922	-59.29746000
128.11999922	-52.10730000
128.15999922	-44.92325000
128.19999922	-35.93859000
128.23999922	-28.74844000
128.27999922	-21.55827000
128.31999922	-12.57363000
128.35999922	-3.58897700
128.39999922	5.38956800
128.43999922	17.96930000
128.47999922	30.54292000
128.51999922	43.12265000
128.55999922	57.50298000
128.59999922	70.07660000
128.63999922	84.45692000
128.67999922	100.62560000
128.71999922	116.80040000
128.75999922	132.97520000
128.79999922	143.75440000
128.83999922	150.94450000
128.87999922	150.94450000
128.91999922	143.75440000
128.95999922	134.76970000
128.99999922	122.19000000
129.03999922	113.20540000
129.07999922	104.22070000
129.11999922	93.44157000
129.15999922	84.45692000
129.19999921	71.87719000
129.23999921	61.09195000
129.27999921	50.31281000
129.31999921	35.93859000
129.35999921	26.95395000
129.39999921	16.16870000
129.43999921	3.58897700
129.47999921	-8.98464900
129.51999921	-21.55827000
129.55999921	-37.73308000
129.59999921	-50.31281000
129.63999921	-64.68703000
129.67999921	-73.67168000
129.71999921	-82.65633000
129.75999921	-88.04590000
129.79999921	-93.44157000
129.83999921	-93.44157000
129.87999921	-93.44157000
129.91999921	-93.44157000
129.95999921	-89.84650000
129.99999921	-80.86184000
130.03999921	-71.87719000
130.07999921	-64.68703000
130.11999921	-61.09195000
130.15999921	-61.09195000
130.19999921	-61.09195000
130.23999921	-61.09195000
130.27999921	-61.09195000
130.31999921	-62.89254000
130.35999921	-62.89254000
130.39999921	-62.89254000
130.43999921	-61.09195000
130.47999921	-61.09195000
130.51999921	-57.50298000
130.55999921	-52.10730000
130.59999921	-44.92325000
130.63999921	-37.73308000
130.67999921	-30.54292000
130.71999921	-23.35887000
130.75999921	-14.37422000
130.79999921	-5.38956800
130.83999920	3.58897700
130.87999920	14.37422000
130.91999920	26.95395000
130.95999920	41.32816000
130.99999920	55.70238000
131.03999920	75.47227000
131.07999920	106.01520000
131.11999920	136.56420000
131.15999920	149.14400000
131.19999920	141.95990000
131.23999920	147.34950000
131.27999920	145.54890000
131.31999920	132.97520000
131.35999920	98.83114000
131.39999920	75.47227000
131.43999920	71.87719000
131.47999920	86.25141000
131.51999920	95.23605000
131.55999920	93.44157000
131.59999920	89.84650000
131.63999920	88.04590000
131.67999920	86.25141000
131.71999920	73.67168000
131.75999920	50.31281000
131.79999920	34.13800000
131.83999920	26.95395000
131.87999920	19.76379000
131.91999920	5.38956800
131.95999920	-14.37422000
131.99999920	-32.34352000
132.03999920	-44.92325000
132.07999920	-57.50298000
132.11999920	-68.28211000
132.15999920	-80.86184000
132.19999920	-89.84650000
132.23999920	-95.23605000
132.27999920	-100.62560000
132.31999920	-102.42620000
132.35999920	-104.22070000
132.39999920	-100.62560000
132.43999920	-95.23605000
132.47999919	-86.25141000
132.51999919	-79.06125000
132.55999919	-73.67168000
132.59999919	-71.87719000
132.63999919	-61.09195000
132.67999919	-53.90789000
132.71999919	-50.31281000
132.75999919	-52.10730000
132.79999919	-55.70238000
132.83999919	-57.50298000
132.87999919	-57.50298000
132.91999919	-57.50298000
132.95999919	-57.50298000
132.99999919	-50.31281000
133.03999919	-43.12265000
133.07999919	-35.93859000
133.11999919	-32.34352000
133.15999919	-26.95395000
133.19999919	-23.35887000
133.23999919	-14.37422000
133.27999919	-7.18405700
133.31999919	1.79448800
133.35999919	14.37422000
133.39999919	26.95395000
133.43999919	43.12265000
133.47999919	59.29746000
133.51999919	77.26676000
133.55999919	95.23605000
133.59999919	111.41090000
133.63999919	129.38020000
133.67999919	141.95990000
133.71999919	149.14400000
133.75999919	152.73900000
133.79999919	149.14400000
133.83999919	140.15930000
133.87999919	129.38020000
133.91999919	116.80040000
133.95999919	106.01520000
133.99999919	97.03055000
134.03999919	86.25141000
134.07999919	71.87719000
134.11999918	59.29746000
134.15999918	48.51222000
134.19999918	37.73308000
134.23999918	25.15336000
134.27999918	14.37422000
134.31999918	1.79448800
134.35999918	-10.77914000
134.39999918	-21.55827000
134.43999918	-37.73308000
134.47999918	-48.51222000
134.51999918	-59.29746000
134.55999918	-68.28211000
134.59999918	-75.47227000
134.63999918	-80.86184000
134.67999918	-86.25141000
134.71999918	-89.84650000
134.75999918	-86.25141000
134.79999918	-84.45692000
134.83999918	-79.06125000
134.87999918	-79.06125000
134.91999918	-86.25141000
134.95999918	-71.87719000
134.99999918	-64.68703000
135.03999918	-70.07660000
135.07999918	-73.67168000
135.11999918	-75.47227000
135.15999918	-70.07660000
135.19999918	-70.07660000
135.23999918	-71.87719000
135.27999918	-71.87719000
135.31999918	-66.48762000
135.35999918	-66.48762000
135.39999918	-61.09195000
135.43999918	-55.70238000
135.47999918	-46.71774000
135.51999918	-41.32816000
135.55999918	-34.13800000
135.59999918	-23.35887000
135.63999918	-16.16870000
135.67999918	-8.98464900
135.71999918	0.00000000
135.75999917	12.57363000
135.79999917	23.35887000
135.83999917	34.13800000
135.87999917	46.71774000
135.91999917	57.50298000
135.95999917	71.87719000
135.99999917	84.45692000
136.03999917	98.83114000
136.07999917	113.20540000
136.11999917	125.78510000
136.15999917	136.56420000
136.19999917	143.75440000
136.23999917	145.54890000
136.27999917	141.95990000
136.31999917	132.97520000
136.35999917	122.19000000
136.39999917	113.20540000
136.43999917	104.22070000
136.47999917	91.64098000
136.51999917	79.06125000
136.55999917	68.28211000
136.59999917	57.50298000
136.63999917	43.12265000
136.67999917	30.54292000
136.71999917	21.55827000
136.75999917	8.98464900
136.79999917	-1.79448800
136.83999917	-14.37422000
136.87999917	-28.74844000
136.91999917	-41.32816000
136.95999917	-53.90789000
136.99999917	-64.68703000
137.03999917	-75.47227000
137.07999917	-84.45692000
137.11999917	-89.84650000
137.15999917	-93.44157000
137.19999917	-95.23605000
137.23999917	-95.23605000
137.27999917	-93.44157000
137.31999917	-89.84650000
137.35999917	-82.65633000
137.39999916	-77.26676000
137.43999916	-66.48762000
137.47999916	-59.29746000
137.51999916	-53.90789000
137.55999916	-55.70238000
137.59999916	-53.90789000
137.63999916	-55.70238000
137.67999916	-57.50298000
137.71999916	-57.50298000
137.75999916	-57.50298000
137.79999916	-57.50298000
137.83999916	-57.50298000
137.87999916	-55.70238000
137.91999916	-52.10730000
137.95999916	-44.92325000
137.99999916	-41.32816000
138.03999916	-34.13800000
138.07999916	-25.15336000
138.11999916	-16.16870000
138.15999916	-7.18405700
138.19999916	1.79448800
138.23999916	14.37422000
138.27999916	26.95395000
138.31999916	41.32816000
138.35999916	53.90789000
138.39999916	71.87719000
138.43999916	88.04590000
138.47999916	106.01520000
138.51999916	123.99060000
138.55999916	141.95990000
138.59999916	150.94450000
138.63999916	156.33410000
138.67999916	150.94450000
138.71999916	141.95990000
138.75999916	129.38020000
138.79999916	118.59490000
138.83999916	111.41090000
138.87999916	102.42620000
138.91999916	91.64098000
138.95999916	80.86184000
138.99999916	70.07660000
139.03999915	57.50298000
139.07999915	44.92325000
139.11999915	32.34352000
139.15999915	21.55827000
139.19999915	10.77914000
139.23999915	-1.79448800
139.27999915	-14.37422000
139.31999915	-30.54292000
139.35999915	-46.71774000
139.39999915	-61.09195000
139.43999915	-71.87719000
139.47999915	-82.65633000
139.51999915	-88.04590000
139.55999915	-91.64098000
139.59999915	-93.44157000
139.63999915	-89.84650000
139.67999915	-84.45692000
139.71999915	-79.06125000
139.75999915	-70.07660000
139.79999915	-62.89254000
139.83999915	-53.90789000
139.87999915	-50.31281000
139.91999915	-52.10730000
139.95999915	-53.90789000
139.99999915	-57.50298000
140.03999915	-61.09195000
140.07999915	-62.89254000
140.11999915	-62.89254000
140.15999915	-64.68703000
140.19999915	-62.89254000
140.23999915	-62.89254000
140.27999915	-57.50298000
140.31999915	-53.90789000
140.35999915	-46.71774000
140.39999915	-39.52757000
140.43999915	-30.54292000
140.47999915	-23.35887000
140.51999915	-16.16870000
140.55999915	-7.18405700
140.59999915	0.00000000
140.63999915	10.77914000
140.67999915	21.55827000
140.71999914	35.93859000
140.75999914	48.51222000
140.79999914	61.09195000
140.83999914	75.47227000
140.87999914	91.64098000
140.91999914	109.61030000
140.95999914	125.78510000
140.99999914	141.95990000
141.03999914	150.94450000
141.07999914	154.53350000
141.11999914	149.14400000
141.15999914	138.36480000
141.19999914	127.57960000
141.23999914	115.00600000
141.27999914	107.81580000
141.31999914	100.62560000
141.35999914	93.44157000
141.39999914	79.06125000
141.43999914	64.68703000
141.47999914	53.90789000
141.51999914	39.52757000
141.55999914	32.34352000
141.59999914	19.76379000
141.63999914	7.18405700
141.67999914	-7.18405700
141.71999914	-21.55827000
141.75999914	-35.93859000
141.79999914	-50.31281000
141.83999914	-64.68703000
141.87999914	-77.26676000
141.91999914	-84.45692000
141.95999914	-89.84650000
141.99999914	-93.44157000
142.03999914	-93.44157000
142.07999914	-95.23605000
142.11999914	-88.04590000
142.15999914	-82.65633000
142.19999914	-73.67168000
142.23999914	-70.07660000
142.27999914	-66.48762000
142.31999914	-64.68703000
142.35999913	-64.68703000
142.39999913	-64.68703000
142.43999913	-66.48762000
142.47999913	-64.68703000
142.51999913	-64.68703000
142.55999913	-64.68703000
142.59999913	-64.68703000
142.63999913	-62.89254000
142.67999913	-61.09195000
142.71999913	-57.50298000
142.75999913	-50.31281000
142.79999913	-44.92325000
142.83999913	-37.73308000
142.87999913	-30.54292000
142.91999913	-23.35887000
142.95999913	-16.16870000
142.99999913	-7.18405700
143.03999913	3.58897700
143.07999913	14.37422000
143.11999913	28.74844000
143.15999913	41.32816000
143.19999913	53.90789000
143.23999913	66.48762000
143.27999913	79.06125000
143.31999913	93.44157000
143.35999913	107.81580000
143.39999913	123.99060000
143.43999913	136.56420000
143.47999913	143.75440000
143.51999913	147.34950000
143.55999913	143.75440000
143.59999913	136.56420000
143.63999913	125.78510000
143.67999913	115.00600000
143.71999913	107.81580000
143.75999913	97.03055000
143.79999913	86.25141000
143.83999913	75.47227000
143.87999913	62.89254000
143.91999913	50.31281000
143.95999913	37.73308000
143.99999912	26.95395000
144.03999912	16.16870000
144.07999912	5.38956800
144.11999912	-7.18405700
144.15999912	-19.76379000
144.19999912	-32.34352000
144.23999912	-46.71774000
144.27999912	-59.29746000
144.31999912	-70.07660000
144.35999912	-79.06125000
144.39999912	-86.25141000
144.43999912	-91.64098000
144.47999912	-91.64098000
144.51999912	-91.64098000
144.55999912	-86.25141000
144.59999912	-82.65633000
144.63999912	-73.67168000
144.67999912	-68.28211000
144.71999912	-66.48762000
144.75999912	-77.26676000
144.79999912	-68.28211000
144.83999912	-59.29746000
144.87999912	-66.48762000
144.91999912	-71.87719000
144.95999912	-73.67168000
144.99999912	-70.07660000
145.03999912	-68.28211000
145.07999912	-70.07660000
145.11999912	-66.48762000
145.15999912	-61.09195000
145.19999912	-55.70238000
145.23999912	-50.31281000
145.27999912	-43.12265000
145.31999912	-34.13800000
145.35999912	-28.74844000
145.39999912	-19.76379000
145.43999912	-7.18405700
145.47999912	1.79448800
145.51999912	14.37422000
145.55999912	25.15336000
145.59999912	39.52757000
145.63999911	52.10730000
145.67999911	64.68703000
145.71999911	77.26676000
145.75999911	91.64098000
145.79999911	107.81580000
145.83999911	120.39550000
145.87999911	132.97520000
145.91999911	143.75440000
145.95999911	147.34950000
145.99999911	145.54890000
146.03999911	140.15930000
146.07999911	129.38020000
146.11999911	118.59490000
146.15999911	109.61030000
146.19999911	100.62560000
146.23999911	91.64098000
146.27999911	82.65633000
146.31999911	68.28211000
146.35999911	55.70238000
146.39999911	46.71774000
146.43999911	34.13800000
146.47999911	19.76379000
146.51999911	8.98464900
146.55999911	0.00000000
146.59999911	-12.57363000
146.63999911	-26.95395000
146.67999911	-41.32816000
146.71999911	-53.90789000
146.75999911	-64.68703000
146.79999911	-75.47227000
146.83999911	-84.45692000
146.87999911	-89.84650000
146.91999911	-93.44157000
146.95999911	-95.23605000
146.99999911	-95.23605000
147.03999911	-95.23605000
147.07999911	-89.84650000
147.11999911	-86.25141000
147.15999911	-79.06125000
147.19999911	-73.67168000
147.23999911	-66.48762000
147.27999910	-66.48762000
147.31999910	-64.68703000
147.35999910	-64.68703000
147.39999910	-64.68703000
147.43999910	-66.48762000
147.47999910	-66.48762000
147.51999910	-64.68703000
147.55999910	-64.68703000
147.59999910	-62.89254000
147.63999910	-59.29746000
147.67999910	-53.90789000
147.71999910	-50.31281000
147.75999910	-43.12265000
147.79999910	-35.93859000
147.83999910	-25.15336000
147.87999910	-16.16870000
147.91999910	-7.18405700
147.95999910	3.58897700
147.99999910	17.96930000
148.03999910	28.74844000
148.07999910	43.12265000
148.11999910	57.50298000
148.15999910	70.07660000
148.19999910	84.45692000
148.23999910	98.83114000
148.27999910	116.80040000
148.31999910	129.38020000
148.35999910	141.95990000
148.39999910	147.34950000
148.43999910	149.14400000
148.47999910	141.95990000
148.51999910	132.97520000
148.55999910	122.19000000
148.59999910	113.20540000
148.63999910	104.22070000
148.67999910	93.44157000
148.71999910	84.45692000
148.75999910	71.87719000
148.79999910	59.29746000
148.83999910	46.71774000
148.87999910	35.93859000
148.91999909	25.15336000
148.95999909	14.37422000
148.99999909	1.79448800
149.03999909	-8.98464900
149.07999909	-23.35887000
149.11999909	-35.93859000
149.15999909	-50.31281000
149.19999909	-62.89254000
149.23999909	-71.87719000
149.27999909	-80.86184000
149.31999909	-88.04590000
149.35999909	-93.44157000
149.39999909	-93.44157000
149.43999909	-95.23605000
149.47999909	-91.64098000
149.51999909	-91.64098000
149.55999909	-79.06125000
149.59999909	-79.06125000
149.63999909	-71.87719000
149.67999909	-70.07660000
149.71999909	-64.68703000
149.75999909	-64.68703000
149.79999909	-64.68703000
149.83999909	-68.28211000
149.87999909	-68.28211000
149.91999909	-70.07660000
149.95999909	-68.28211000
149.99999909	-68.28211000
150.03999909	-66.48762000
150.07999909	-62.89254000
150.11999909	-57.50298000
150.15999909	-50.31281000
150.19999909	-43.12265000
150.23999909	-34.13800000
150.27999909	-25.15336000
150.31999909	-16.16870000
150.35999909	-7.18405700
150.39999909	1.79448800
150.43999909	12.57363000
150.47999909	23.35887000
150.51999909	35.93859000
150.55999908	48.51222000
150.59999908	61.09195000
150.63999908	73.67168000
150.67999908	89.84650000
150.71999908	106.01520000
150.75999908	122.19000000
150.79999908	136.56420000
150.83999908	147.34950000
150.87999908	152.73900000
150.91999908	149.14400000
150.95999908	138.36480000
150.99999908	125.78510000
151.03999908	115.00600000
151.07999908	107.81580000
151.11999908	98.83114000
151.15999908	89.84650000
151.19999908	77.26676000
151.23999908	64.68703000
151.27999908	53.90789000
151.31999908	43.12265000
151.35999908	32.34352000
151.39999908	19.76379000
151.43999908	7.18405700
151.47999908	-1.79448800
151.51999908	-14.37422000
151.55999908	-30.54292000
151.59999908	-46.71774000
151.63999908	-59.29746000
151.67999908	-70.07660000
151.71999908	-79.06125000
151.75999908	-86.25141000
151.79999908	-91.64098000
151.83999908	-93.44157000
151.87999908	-93.44157000
151.91999908	-86.25141000
151.95999908	-80.86184000
151.99999908	-71.87719000
152.03999908	-68.28211000
152.07999908	-64.68703000
152.11999908	-64.68703000
152.15999908	-64.68703000
152.19999908	-68.28211000
152.23999907	-70.07660000
152.27999907	-68.28211000
152.31999907	-70.07660000
152.35999907	-71.87719000
152.39999907	-70.07660000
152.43999907	-70.07660000
152.47999907	-66.48762000
152.51999907	-62.89254000
152.55999907	-57.50298000
152.59999907	-48.51222000
152.63999907	-39.52757000
152.67999907	-32.34352000
152.71999907	-25.15336000
152.75999907	-16.16870000
152.79999907	-8.98464900
152.83999907	0.00000000
152.87999907	10.77914000
152.91999907	21.55827000
152.95999907	32.34352000
152.99999907	46.71774000
153.03999907	57.50298000
153.07999907	70.07660000
153.11999907	86.25141000
153.15999907	100.62560000
153.19999907	118.59490000
153.23999907	132.97520000
153.27999907	143.75440000
153.31999907	149.14400000
153.35999907	147.34950000
153.39999907	141.95990000
153.43999907	131.17470000
153.47999907	120.39550000
153.51999907	111.41090000
153.55999907	102.42620000
153.59999907	93.44157000
153.63999907	82.65633000
153.67999907	71.87719000
153.71999907	61.09195000
153.75999907	48.51222000
153.79999907	37.73308000
153.83999907	26.95395000
153.87999906	14.37422000
153.91999906	1.79448800
153.95999906	-10.77914000
153.99999906	-25.15336000
154.03999906	-41.32816000
154.07999906	-53.90789000
154.11999906	-66.48762000
154.15999906	-77.26676000
154.19999906	-86.25141000
154.23999906	-91.64098000
154.27999906	-93.44157000
154.31999906	-95.23605000
154.35999906	-95.23605000
154.39999906	-93.44157000
154.43999906	-89.84650000
154.47999906	-86.25141000
154.51999906	-80.86184000
154.55999906	-79.06125000
154.59999906	-91.64098000
154.63999906	-84.45692000
154.67999906	-71.87719000
154.71999906	-70.07660000
154.75999906	-71.87719000
154.79999906	-66.48762000
154.83999906	-61.09195000
154.87999906	-55.70238000
154.91999906	-55.70238000
154.95999906	-53.90789000
154.99999906	-46.71774000
155.03999906	-43.12265000
155.07999906	-41.32816000
155.11999906	-35.93859000
155.15999906	-30.54292000
155.19999906	-26.95395000
155.23999906	-21.55827000
155.27999906	-10.77914000
155.31999906	-1.79448800
155.35999906	7.18405700
155.39999906	19.76379000
155.43999906	32.34352000
155.47999906	46.71774000
155.51999905	59.29746000
155.55999905	75.47227000
155.59999905	91.64098000
155.63999905	109.61030000
155.67999905	125.78510000
155.71999905	136.56420000
155.75999905	145.54890000
155.79999905	149.14400000
155.83999905	143.75440000
155.87999905	136.56420000
155.91999905	123.99060000
155.95999905	115.00600000
155.99999905	106.01520000
156.03999905	97.03055000
156.07999905	86.25141000
156.11999905	71.87719000
156.15999905	59.29746000
156.19999905	50.31281000
156.23999905	35.93859000
156.27999905	23.35887000
156.31999905	12.57363000
156.35999905	1.79448800
156.39999905	-8.98464900
156.43999905	-23.35887000
156.47999905	-37.73308000
156.51999905	-50.31281000
156.55999905	-61.09195000
156.59999905	-71.87719000
156.63999905	-80.86184000
156.67999905	-86.25141000
156.71999905	-91.64098000
156.75999905	-95.23605000
156.79999905	-93.44157000
156.83999905	-93.44157000
156.87999905	-91.64098000
156.91999905	-88.04590000
156.95999905	-86.25141000
156.99999905	-84.45692000
157.03999905	-84.45692000
157.07999905	-82.65633000
157.11999905	-80.86184000
157.15999904	-71.87719000
157.19999904	-70.07660000
157.23999904	-66.48762000
157.27999904	-64.68703000
157.31999904	-62.89254000
157.35999904	-62.89254000
157.39999904	-61.09195000
157.43999904	-57.50298000
157.47999904	-53.90789000
157.51999904	-50.31281000
157.55999904	-44.92325000
157.59999904	-39.52757000
157.63999904	-34.13800000
157.67999904	-26.95395000
157.71999904	-19.76379000
157.75999904	-8.98464900
157.79999904	1.79448800
157.83999904	14.37422000
157.87999904	26.95395000
157.91999904	41.32816000
157.95999904	52.10730000
157.99999904	68.28211000
158.03999904	82.65633000
158.07999904	100.62560000
158.11999904	115.00600000
158.15999904	129.38020000
158.19999904	140.15930000
158.23999904	147.34950000
158.27999904	145.54890000
158.31999904	141.95990000
158.35999904	132.97520000
158.39999904	120.39550000
158.43999904	111.41090000
158.47999904	100.62560000
158.51999904	89.84650000
158.55999904	79.06125000
158.59999904	66.48762000
158.63999904	53.90789000
158.67999904	41.32816000
158.71999904	30.54292000
158.75999904	17.96930000
158.79999903	7.18405700
158.83999903	-3.58897700
158.87999903	-16.16870000
158.91999903	-28.74844000
158.95999903	-43.12265000
158.99999903	-55.70238000
159.03999903	-66.48762000
159.07999903	-77.26676000
159.11999903	-86.25141000
159.15999903	-89.84650000
159.19999903	-95.23605000
159.23999903	-95.23605000
159.27999903	-95.23605000
159.31999903	-93.44157000
159.35999903	-88.04590000
159.39999903	-86.25141000
159.43999903	-86.25141000
159.47999903	-88.04590000
159.51999903	-86.25141000
159.55999903	-82.65633000
159.59999903	-80.86184000
159.63999903	-80.86184000
159.67999903	-80.86184000
159.71999903	-75.47227000
159.75999903	-71.87719000
159.79999903	-64.68703000
159.83999903	-59.29746000
159.87999903	-57.50298000
159.91999903	-52.10730000
159.95999903	-46.71774000
159.99999903	-43.12265000
160.03999903	-37.73308000
160.07999903	-34.13800000
160.11999903	-28.74844000
160.15999903	-23.35887000
160.19999903	-16.16870000
160.23999903	-7.18405700
160.27999903	1.79448800
160.31999903	14.37422000
160.35999903	26.95395000
160.39999903	41.32816000
160.43999902	53.90789000
160.47999902	70.07660000
160.51999902	86.25141000
160.55999902	102.42620000
160.59999902	120.39550000
160.63999902	134.76970000
160.67999902	145.54890000
160.71999902	149.14400000
160.75999902	149.14400000
160.79999902	141.95990000
160.83999902	129.38020000
160.87999902	115.00600000
160.91999902	104.22070000
160.95999902	93.44157000
160.99999902	84.45692000
161.03999902	75.47227000
161.07999902	61.09195000
161.11999902	48.51222000
161.15999902	35.93859000
161.19999902	25.15336000
161.23999902	16.16870000
161.27999902	3.58897700
161.31999902	-7.18405700
161.35999902	-19.76379000
161.39999902	-32.34352000
161.43999902	-44.92325000
161.47999902	-59.29746000
161.51999902	-70.07660000
161.55999902	-79.06125000
161.59999902	-86.25141000
161.63999902	-91.64098000
161.67999902	-93.44157000
161.71999902	-95.23605000
161.75999902	-93.44157000
161.79999902	-91.64098000
161.83999902	-88.04590000
161.87999902	-86.25141000
161.91999902	-86.25141000
161.95999902	-86.25141000
161.99999902	-86.25141000
162.03999902	-86.25141000
162.07999901	-86.25141000
162.11999901	-86.25141000
162.15999901	-84.45692000
162.19999901	-80.86184000
162.23999901	-79.06125000
162.27999901	-75.47227000
162.31999901	-71.87719000
162.35999901	-68.28211000
162.39999901	-62.89254000
162.43999901	-55.70238000
162.47999901	-48.51222000
162.51999901	-39.52757000
162.55999901	-32.34352000
162.59999901	-23.35887000
162.63999901	-14.37422000
162.67999901	-5.38956800
162.71999901	3.58897700
162.75999901	16.16870000
162.79999901	26.95395000
162.83999901	37.73308000
162.87999901	50.31281000
162.91999901	62.89254000
162.95999901	80.86184000
162.99999901	100.62560000
163.03999901	115.00600000
163.07999901	129.38020000
163.11999901	132.97520000
163.15999901	131.17470000
163.19999901	123.99060000
163.23999901	115.00600000
163.27999901	104.22070000
163.31999901	91.64098000
163.35999901	86.25141000
163.39999901	86.25141000
163.43999901	88.04590000
163.47999901	86.25141000
163.51999901	80.86184000
163.55999901	73.67168000
163.59999901	64.68703000
163.63999901	53.90789000
163.67999901	41.32816000
163.71999900	25.15336000
163.75999900	10.77914000
163.79999900	3.58897700
163.83999900	-10.77914000
163.87999900	-23.35887000
163.91999900	-35.93859000
163.95999900	-50.31281000
163.99999900	-59.29746000
164.03999900	-71.87719000
164.07999900	-82.65633000
164.11999900	-88.04590000
164.15999900	-98.83114000
164.19999900	-93.44157000
164.23999900	-95.23605000
164.27999900	-89.84650000
164.31999900	-89.84650000
164.35999900	-84.45692000
164.39999900	-79.06125000
164.43999900	-86.25141000
164.47999900	-82.65633000
164.51999900	-66.48762000
164.55999900	-64.68703000
164.59999900	-70.07660000
164.63999900	-73.67168000
164.67999900	-73.67168000
164.71999900	-71.87719000
164.75999900	-73.67168000
164.79999900	-73.67168000
164.83999900	-70.07660000
164.87999900	-64.68703000
164.91999900	-59.29746000
164.95999900	-50.31281000
164.99999900	-39.52757000
165.03999900	-34.13800000
165.07999900	-26.95395000
165.11999900	-16.16870000
165.15999900	-8.98464900
165.19999900	0.00000000
165.23999900	7.18405700
165.27999900	23.35887000
165.31999900	35.93859000
165.35999900	52.10730000
165.39999899	68.28211000
165.43999899	82.65633000
165.47999899	100.62560000
165.51999899	113.20540000
165.55999899	127.57960000
165.59999899	140.15930000
165.63999899	147.34950000
165.67999899	149.14400000
165.71999899	149.14400000
165.75999899	143.75440000
165.79999899	127.57960000
165.83999899	118.59490000
165.87999899	109.61030000
165.91999899	98.83114000
165.95999899	86.25141000
165.99999899	75.47227000
166.03999899	64.68703000
166.07999899	53.90789000
166.11999899	41.32816000
166.15999899	28.74844000
166.19999899	19.76379000
166.23999899	7.18405700
166.27999899	-5.38956800
166.31999899	-16.16870000
166.35999899	-28.74844000
166.39999899	-41.32816000
166.43999899	-53.90789000
166.47999899	-64.68703000
166.51999899	-73.67168000
166.55999899	-80.86184000
166.59999899	-86.25141000
166.63999899	-91.64098000
166.67999899	-93.44157000
166.71999899	-95.23605000
166.75999899	-93.44157000
166.79999899	-93.44157000
166.83999899	-89.84650000
166.87999899	-88.04590000
166.91999899	-86.25141000
166.95999899	-82.65633000
166.99999899	-80.86184000
167.03999898	-80.86184000
167.07999898	-79.06125000
167.11999898	-79.06125000
167.15999898	-75.47227000
167.19999898	-73.67168000
167.23999898	-71.87719000
167.27999898	-66.48762000
167.31999898	-62.89254000
167.35999898	-57.50298000
167.39999898	-50.31281000
167.43999898	-43.12265000
167.47999898	-35.93859000
167.51999898	-26.95395000
167.55999898	-19.76379000
167.59999898	-10.77914000
167.63999898	-1.79448800
167.67999898	7.18405700
167.71999898	17.96930000
167.75999898	28.74844000
167.79999898	41.32816000
167.83999898	52.10730000
167.87999898	62.89254000
167.91999898	75.47227000
167.95999898	88.04590000
167.99999898	104.22070000
168.03999898	115.00600000
168.07999898	127.57960000
168.11999898	136.56420000
168.15999898	140.15930000
168.19999898	141.95990000
168.23999898	136.56420000
168.27999898	129.38020000
168.31999898	120.39550000
168.35999898	111.41090000
168.39999898	98.83114000
168.43999898	88.04590000
168.47999898	75.47227000
168.51999898	62.89254000
168.55999898	50.31281000
168.59999898	35.93859000
168.63999898	26.95395000
168.67999897	14.37422000
168.71999897	3.58897700
168.75999897	-8.98464900
168.79999897	-21.55827000
168.83999897	-32.34352000
168.87999897	-43.12265000
168.91999897	-57.50298000
168.95999897	-66.48762000
168.99999897	-75.47227000
169.03999897	-84.45692000
169.07999897	-89.84650000
169.11999897	-93.44157000
169.15999897	-95.23605000
169.19999897	-97.03055000
169.23999897	-95.23605000
169.27999897	-93.44157000
169.31999897	-91.64098000
169.35999897	-88.04590000
169.39999897	-73.67168000
169.43999897	-66.48762000
169.47999897	-57.50298000
169.51999897	-62.89254000
169.55999897	-61.09195000
169.59999897	-61.09195000
169.63999897	-61.09195000
169.67999897	-64.68703000
169.71999897	-66.48762000
169.75999897	-64.68703000
169.79999897	-64.68703000
169.83999897	-61.09195000
169.87999897	-57.50298000
169.91999897	-53.90789000
169.95999897	-46.71774000
169.99999897	-39.52757000
170.03999897	-28.74844000
170.07999897	-19.76379000
170.11999897	-8.98464900
170.15999897	1.79448800
170.19999897	14.37422000
170.23999897	28.74844000
170.27999897	41.32816000
170.31999896	55.70238000
170.35999896	71.87719000
170.39999896	86.25141000
170.43999896	104.22070000
170.47999896	120.39550000
170.51999896	136.56420000
170.55999896	150.94450000
170.59999896	158.12860000
170.63999896	154.53350000
170.67999896	141.95990000
170.71999896	131.17470000
170.75999896	120.39550000
170.79999896	113.20540000
170.83999896	104.22070000
170.87999896	93.44157000
170.91999896	82.65633000
170.95999896	71.87719000
170.99999896	61.09195000
171.03999896	46.71774000
171.07999896	34.13800000
171.11999896	23.35887000
171.15999896	14.37422000
171.19999896	1.79448800
171.23999896	-10.77914000
171.27999896	-25.15336000
171.31999896	-41.32816000
171.35999896	-55.70238000
171.39999896	-66.48762000
171.43999896	-77.26676000
171.47999896	-86.25141000
171.51999896	-88.04590000
171.55999896	-93.44157000
171.59999896	-89.84650000
171.63999896	-88.04590000
171.67999896	-82.65633000
171.71999896	-75.47227000
171.75999896	-70.07660000
171.79999896	-62.89254000
171.83999896	-57.50298000
171.87999896	-46.71774000
171.91999896	-34.13800000
171.95999895	-26.95395000
171.99999895	-41.32816000
172.03999895	-59.29746000
172.07999895	-68.28211000
172.11999895	-79.06125000
172.15999895	-95.23605000
172.19999895	-109.61030000
172.23999895	-115.00600000
172.27999895	-97.03055000
172.31999895	-70.07660000
172.35999895	-50.31281000
172.39999895	-39.52757000
172.43999895	-25.15336000
172.47999895	-7.18405700
172.51999895	8.98464900
172.55999895	12.57363000
172.59999895	14.37422000
172.63999895	21.55827000
172.67999895	39.52757000
172.71999895	55.70238000
172.75999895	64.68703000
172.79999895	77.26676000
172.83999895	91.64098000
172.87999895	109.61030000
172.91999895	127.57960000
172.95999895	141.95990000
172.99999895	149.14400000
173.03999895	152.73900000
173.07999895	150.94450000
173.11999895	136.56420000
173.15999895	120.39550000
173.19999895	104.22070000
173.23999895	95.23605000
173.27999895	89.84650000
173.31999895	86.25141000
173.35999895	82.65633000
173.39999895	75.47227000
173.43999895	71.87719000
173.47999895	64.68703000
173.51999895	55.70238000
173.55999895	44.92325000
173.59999894	28.74844000
173.63999894	14.37422000
173.67999894	-3.58897700
173.71999894	-21.55827000
173.75999894	-39.52757000
173.79999894	-55.70238000
173.83999894	-68.28211000
173.87999894	-79.06125000
173.91999894	-86.25141000
173.95999894	-93.44157000
173.99999894	-98.83114000
174.03999894	-100.62560000
174.07999894	-102.42620000
174.11999894	-98.83114000
174.15999894	-95.23605000
174.19999894	-84.45692000
174.23999894	-71.87719000
174.27999894	-73.67168000
174.31999894	-70.07660000
174.35999894	-55.70238000
174.39999894	-50.31281000
174.43999894	-57.50298000
174.47999894	-59.29746000
174.51999894	-59.29746000
174.55999894	-57.50298000
174.59999894	-59.29746000
174.63999894	-62.89254000
174.67999894	-59.29746000
174.71999894	-57.50298000
174.75999894	-53.90789000
174.79999894	-50.31281000
174.83999894	-43.12265000
174.87999894	-35.93859000
174.91999894	-28.74844000
174.95999894	-17.96930000
174.99999894	-7.18405700
175.03999894	1.79448800
175.07999894	14.37422000
175.11999894	26.95395000
175.15999894	41.32816000
175.19999894	53.90789000
175.23999893	66.48762000
175.27999893	82.65633000
175.31999893	100.62560000
175.35999893	115.00600000
175.39999893	134.76970000
175.43999893	147.34950000
175.47999893	156.33410000
175.51999893	156.33410000
175.55999893	149.14400000
175.59999893	136.56420000
175.63999893	122.19000000
175.67999893	111.41090000
175.71999893	102.42620000
175.75999893	93.44157000
175.79999893	84.45692000
175.83999893	71.87719000
175.87999893	61.09195000
175.91999893	52.10730000
175.95999893	41.32816000
175.99999893	26.95395000
176.03999893	17.96930000
176.07999893	7.18405700
176.11999893	-5.38956800
176.15999893	-21.55827000
176.19999893	-35.93859000
176.23999893	-48.51222000
176.27999893	-61.09195000
176.31999893	-71.87719000
176.35999893	-80.86184000
176.39999893	-86.25141000
176.43999893	-91.64098000
176.47999893	-93.44157000
176.51999893	-93.44157000
176.55999893	-93.44157000
176.59999893	-86.25141000
176.63999893	-80.86184000
176.67999893	-73.67168000
176.71999893	-71.87719000
176.75999893	-71.87719000
176.79999893	-71.87719000
176.83999893	-70.07660000
176.87999893	-71.87719000
176.91999892	-64.68703000
176.95999892	-71.87719000
176.99999892	-68.28211000
177.03999892	-73.67168000
177.07999892	-71.87719000
177.11999892	-71.87719000
177.15999892	-64.68703000
177.19999892	-59.29746000
177.23999892	-53.90789000
177.27999892	-43.12265000
177.31999892	-35.93859000
177.35999892	-28.74844000
177.39999892	-17.96930000
177.43999892	-8.98464900
177.47999892	1.79448800
177.51999892	14.37422000
177.55999892	26.95395000
177.59999892	39.52757000
177.63999892	50.31281000
177.67999892	61.09195000
177.71999892	75.47227000
177.75999892	88.04590000
177.79999892	102.42620000
177.83999892	115.00600000
177.87999892	129.38020000
177.91999892	140.15930000
177.95999892	143.75440000
177.99999892	145.54890000
178.03999892	140.15930000
178.07999892	132.97520000
178.11999892	120.39550000
178.15999892	111.41090000
178.19999892	100.62560000
178.23999892	91.64098000
178.27999892	80.86184000
178.31999892	70.07660000
178.35999892	57.50298000
178.39999892	46.71774000
178.43999892	35.93859000
178.47999892	23.35887000
178.51999892	12.57363000
178.55999891	0.00000000
178.59999891	-12.57363000
178.63999891	-28.74844000
178.67999891	-37.73308000
178.71999891	-52.10730000
178.75999891	-64.68703000
178.79999891	-73.67168000
178.83999891	-84.45692000
178.87999891	-88.04590000
178.91999891	-95.23605000
178.95999891	-97.03055000
178.99999891	-95.23605000
179.03999891	-93.44157000
179.07999891	-89.84650000
179.11999891	-86.25141000
179.15999891	-84.45692000
179.19999891	-77.26676000
179.23999891	-77.26676000
179.27999891	-70.07660000
179.31999891	-71.87719000
179.35999891	-73.67168000
179.39999891	-71.87719000
179.43999891	-73.67168000
179.47999891	-71.87719000
179.51999891	-71.87719000
179.55999891	-70.07660000
179.59999891	-68.28211000
179.63999891	-62.89254000
179.67999891	-57.50298000
179.71999891	-50.31281000
179.75999891	-43.12265000
179.79999891	-35.93859000
179.83999891	-26.95395000
179.87999891	-16.16870000
179.91999891	-7.18405700
179.95999891	3.58897700
179.99999891	14.37422000
180.03999891	26.95395000
180.07999891	39.52757000
180.11999891	52.10730000
180.15999891	62.89254000
180.19999890	77.26676000
180.23999890	91.64098000
180.27999890	106.01520000
180.31999890	120.39550000
180.35999890	132.97520000
180.39999890	143.75440000
180.43999890	147.34950000
180.47999890	147.34950000
180.51999890	138.36480000
180.55999890	129.38020000
180.59999890	118.59490000
180.63999890	109.61030000
180.67999890	104.22070000
180.71999890	91.64098000
180.75999890	77.26676000
180.79999890	64.68703000
180.83999890	52.10730000
180.87999890	41.32816000
180.91999890	30.54292000
180.95999890	21.55827000
180.99999890	7.18405700
181.03999890	-3.58897700
181.07999890	-14.37422000
181.11999890	-26.95395000
181.15999890	-39.52757000
181.19999890	-53.90789000
181.23999890	-64.68703000
181.27999890	-73.67168000
181.31999890	-82.65633000
181.35999890	-89.84650000
181.39999890	-93.44157000
181.43999890	-93.44157000
181.47999890	-91.64098000
181.51999890	-88.04590000
181.55999890	-73.67168000
181.59999890	-66.48762000
181.63999890	-59.29746000
181.67999890	-61.09195000
181.71999890	-59.29746000
181.75999890	-61.09195000
181.79999890	-62.89254000
181.83999889	-64.68703000
181.87999889	-66.48762000
181.91999889	-68.28211000
181.95999889	-71.87719000
181.99999889	-71.87719000
182.03999889	-70.07660000
182.07999889	-66.48762000
182.11999889	-62.89254000
182.15999889	-53.90789000
182.19999889	-46.71774000
182.23999889	-37.73308000
182.27999889	-30.54292000
182.31999889	-23.35887000
182.35999889	-14.37422000
182.39999889	-7.18405700
182.43999889	5.38956800
182.47999889	16.16870000
182.51999889	32.34352000
182.55999889	44.92325000
182.59999889	59.29746000
182.63999889	75.47227000
182.67999889	91.64098000
182.71999889	107.81580000
182.75999889	127.57960000
182.79999889	143.75440000
182.83999889	154.53350000
182.87999889	158.12860000
182.91999889	150.94450000
182.95999889	141.95990000
182.99999889	127.57960000
183.03999889	118.59490000
183.07999889	111.41090000
183.11999889	106.01520000
183.15999889	97.03055000
183.19999889	88.04590000
183.23999889	79.06125000
183.27999889	68.28211000
183.31999889	55.70238000
183.35999889	44.92325000
183.39999889	34.13800000
183.43999889	21.55827000
183.47999888	8.98464900
183.51999888	-7.18405700
183.55999888	-21.55827000
183.59999888	-39.52757000
183.63999888	-53.90789000
183.67999888	-66.48762000
183.71999888	-77.26676000
183.75999888	-86.25141000
183.79999888	-91.64098000
183.83999888	-93.44157000
183.87999888	-93.44157000
183.91999888	-88.04590000
183.95999888	-82.65633000
183.99999888	-73.67168000
184.03999888	-71.87719000
184.07999888	-64.68703000
184.11999888	-70.07660000
184.15999888	-73.67168000
184.19999888	-61.09195000
184.23999888	-57.50298000
184.27999888	-66.48762000
184.31999888	-70.07660000
184.35999888	-71.87719000
184.39999888	-66.48762000
184.43999888	-66.48762000
184.47999888	-66.48762000
184.51999888	-61.09195000
184.55999888	-53.90789000
184.59999888	-48.51222000
184.63999888	-41.32816000
184.67999888	-34.13800000
184.71999888	-28.74844000
184.75999888	-21.55827000
184.79999888	-12.57363000
184.83999888	-3.58897700
184.87999888	5.38956800
184.91999888	16.16870000
184.95999888	26.95395000
184.99999888	43.12265000
185.03999888	53.90789000
185.07999888	66.48762000
185.11999887	82.65633000
185.15999887	98.83114000
185.19999887	113.20540000
185.23999887	129.38020000
185.27999887	140.15930000
185.31999887	149.14400000
185.35999887	150.94450000
185.39999887	145.54890000
185.43999887	134.76970000
185.47999887	122.19000000
185.51999887	113.20540000
185.55999887	106.01520000
185.59999887	100.62560000
185.63999887	91.64098000
185.67999887	77.26676000
185.71999887	68.28211000
185.75999887	57.50298000
185.79999887	44.92325000
185.83999887	30.54292000
185.87999887	21.55827000
185.91999887	10.77914000
185.95999887	-1.79448800
185.99999887	-17.96930000
186.03999887	-32.34352000
186.07999887	-44.92325000
186.11999887	-59.29746000
186.15999887	-71.87719000
186.19999887	-80.86184000
186.23999887	-86.25141000
186.27999887	-91.64098000
186.31999887	-93.44157000
186.35999887	-95.23605000
186.39999887	-93.44157000
186.43999887	-91.64098000
186.47999887	-88.04590000
186.51999887	-84.45692000
186.55999887	-80.86184000
186.59999887	-79.06125000
186.63999887	-75.47227000
186.67999887	-71.87719000
186.71999887	-71.87719000
186.75999886	-70.07660000
186.79999886	-66.48762000
186.83999886	-66.48762000
186.87999886	-64.68703000
186.91999886	-64.68703000
186.95999886	-62.89254000
186.99999886	-59.29746000
187.03999886	-55.70238000
187.07999886	-50.31281000
187.11999886	-43.12265000
187.15999886	-37.73308000
187.19999886	-30.54292000
187.23999886	-23.35887000
187.27999886	-14.37422000
187.31999886	-5.38956800
187.35999886	7.18405700
187.39999886	19.76379000
187.43999886	32.34352000
187.47999886	44.92325000
187.51999886	57.50298000
187.55999886	71.87719000
187.59999886	86.25141000
187.63999886	100.62560000
187.67999886	115.00600000
187.71999886	129.38020000
187.75999886	141.95990000
187.79999886	147.34950000
187.83999886	147.34950000
187.87999886	140.15930000
187.91999886	131.17470000
187.95999886	120.39550000
187.99999886	111.41090000
188.03999886	102.42620000
188.07999886	93.44157000
188.11999886	82.65633000
188.15999886	71.87719000
188.19999886	59.29746000
188.23999886	48.51222000
188.27999886	35.93859000
188.31999886	23.35887000
188.35999886	14.37422000
188.39999886	0.00000000
188.43999885	-10.77914000
188.47999885	-23.35887000
188.51999885	-37.73308000
188.55999885	-50.31281000
188.59999885	-62.89254000
188.63999885	-73.67168000
188.67999885	-80.86184000
188.71999885	-88.04590000
188.75999885	-91.64098000
188.79999885	-91.64098000
188.83999885	-89.84650000
188.87999885	-86.25141000
188.91999885	-80.86184000
188.95999885	-77.26676000
188.99999885	-79.06125000
189.03999885	-75.47227000
189.07999885	-77.26676000
189.11999885	-73.67168000
189.15999885	-75.47227000
189.19999885	-77.26676000
189.23999885	-75.47227000
189.27999885	-75.47227000
189.31999885	-71.87719000
189.35999885	-71.87719000
189.39999885	-68.28211000
189.43999885	-64.68703000
189.47999885	-59.29746000
189.51999885	-53.90789000
189.55999885	-48.51222000
189.59999885	-41.32816000
189.63999885	-37.73308000
189.67999885	-30.54292000
189.71999885	-23.35887000
189.75999885	-14.37422000
189.79999885	-3.58897700
189.83999885	7.18405700
189.87999885	21.55827000
189.91999885	35.93859000
189.95999885	50.31281000
189.99999885	62.89254000
190.03999885	79.06125000
190.07999884	93.44157000
190.11999884	109.61030000
190.15999884	123.99060000
190.19999884	136.56420000
190.23999884	149.14400000
190.27999884	150.94450000
190.31999884	145.54890000
190.35999884	136.56420000
190.39999884	123.99060000
190.43999884	115.00600000
190.47999884	107.81580000
190.51999884	102.42620000
190.55999884	91.64098000
190.59999884	79.06125000
190.63999884	70.07660000
190.67999884	61.09195000
190.71999884	48.51222000
190.75999884	35.93859000
190.79999884	25.15336000
190.83999884	14.37422000
190.87999884	1.79448800
190.91999884	-12.57363000
190.95999884	-28.74844000
190.99999884	-41.32816000
191.03999884	-55.70238000
191.07999884	-66.48762000
191.11999884	-77.26676000
191.15999884	-86.25141000
191.19999884	-91.64098000
191.23999884	-95.23605000
191.27999884	-95.23605000
191.31999884	-93.44157000
191.35999884	-86.25141000
191.39999884	-80.86184000
191.43999884	-71.87719000
191.47999884	-70.07660000
191.51999884	-68.28211000
191.55999884	-68.28211000
191.59999884	-68.28211000
191.63999884	-68.28211000
191.67999884	-70.07660000
191.71999883	-70.07660000
191.75999883	-70.07660000
191.79999883	-71.87719000
191.83999883	-70.07660000
191.87999883	-68.28211000
191.91999883	-64.68703000
191.95999883	-61.09195000
191.99999883	-52.10730000
192.03999883	-46.71774000
192.07999883	-37.73308000
192.11999883	-32.34352000
192.15999883	-25.15336000
192.19999883	-16.16870000
192.23999883	-8.98464900
192.27999883	1.79448800
192.31999883	14.37422000
192.35999883	28.74844000
192.39999883	43.12265000
192.43999883	55.70238000
192.47999883	70.07660000
192.51999883	84.45692000
192.55999883	100.62560000
192.59999883	116.80040000
192.63999883	131.17470000
192.67999883	143.75440000
192.71999883	150.94450000
192.75999883	150.94450000
192.79999883	143.75440000
192.83999883	131.17470000
192.87999883	120.39550000
192.91999883	113.20540000
192.95999883	106.01520000
192.99999883	98.83114000
193.03999883	89.84650000
193.07999883	79.06125000
193.11999883	68.28211000
193.15999883	55.70238000
193.19999883	44.92325000
193.23999883	34.13800000
193.27999883	21.55827000
193.31999883	8.98464900
193.35999882	-5.38956800
193.39999882	-19.76379000
193.43999882	-35.93859000
193.47999882	-50.31281000
193.51999882	-62.89254000
193.55999882	-73.67168000
193.59999882	-82.65633000
193.63999882	-88.04590000
193.67999882	-93.44157000
193.71999882	-97.03055000
193.75999882	-95.23605000
193.79999882	-93.44157000
193.83999882	-86.25141000
193.87999882	-82.65633000
193.91999882	-70.07660000
193.95999882	-71.87719000
193.99999882	-77.26676000
194.03999882	-66.48762000
194.07999882	-57.50298000
194.11999882	-64.68703000
194.15999882	-68.28211000
194.19999882	-70.07660000
194.23999882	-66.48762000
194.27999882	-64.68703000
194.31999882	-68.28211000
194.35999882	-68.28211000
194.39999882	-61.09195000
194.43999882	-57.50298000
194.47999882	-52.10730000
194.51999882	-43.12265000
194.55999882	-35.93859000
194.59999882	-30.54292000
194.63999882	-21.55827000
194.67999882	-8.98464900
194.71999882	0.00000000
194.75999882	10.77914000
194.79999882	21.55827000
194.83999882	35.93859000
194.87999882	48.51222000
194.91999882	61.09195000
194.95999882	75.47227000
194.99999881	91.64098000
195.03999881	109.61030000
195.07999881	123.99060000
195.11999881	138.36480000
195.15999881	149.14400000
195.19999881	152.73900000
195.23999881	147.34950000
195.27999881	140.15930000
195.31999881	129.38020000
195.35999881	115.00600000
195.39999881	107.81580000
195.43999881	102.42620000
195.47999881	91.64098000
195.51999881	79.06125000
195.55999881	71.87719000
195.59999881	61.09195000
195.63999881	50.31281000
195.67999881	35.93859000
195.71999881	25.15336000
195.75999881	8.98464900
195.79999881	-14.37422000
195.83999881	-52.10730000
195.87999881	-57.50298000
195.91999881	-53.90789000
195.95999881	-61.09195000
195.99999881	-64.68703000
196.03999881	-59.29746000
196.07999881	-46.71774000
196.11999881	-37.73308000
196.15999881	-44.92325000
196.19999881	-70.07660000
196.23999881	-86.25141000
196.27999881	-88.04590000
196.31999881	-91.64098000
196.35999881	-97.03055000
196.39999881	-107.81580000
196.43999881	-100.62560000
196.47999881	-88.04590000
196.51999881	-75.47227000
196.55999881	-77.26676000
196.59999881	-80.86184000
196.63999880	-79.06125000
196.67999880	-71.87719000
196.71999880	-70.07660000
196.75999880	-71.87719000
196.79999880	-71.87719000
196.83999880	-68.28211000
196.87999880	-61.09195000
196.91999880	-52.10730000
196.95999880	-46.71774000
196.99999880	-39.52757000
197.03999880	-28.74844000
197.07999880	-16.16870000
197.11999880	-3.58897700
197.15999880	5.38956800
197.19999880	10.77914000
197.23999880	17.96930000
197.27999880	26.95395000
197.31999880	37.73308000
197.35999880	44.92325000
197.39999880	53.90789000
197.43999880	70.07660000
197.47999880	86.25141000
197.51999880	107.81580000
197.55999880	127.57960000
197.59999880	140.15930000
197.63999880	149.14400000
197.67999880	150.94450000
197.71999880	145.54890000
197.75999880	132.97520000
197.79999880	120.39550000
197.83999880	111.41090000
197.87999880	106.01520000
197.91999880	98.83114000
197.95999880	91.64098000
197.99999880	82.65633000
198.03999880	71.87719000
198.07999880	61.09195000
198.11999880	48.51222000
198.15999880	34.13800000
198.19999880	21.55827000
198.23999880	5.38956800
198.27999879	-10.77914000
198.31999879	-25.15336000
198.35999879	-41.32816000
198.39999879	-55.70238000
198.43999879	-66.48762000
198.47999879	-77.26676000
198.51999879	-84.45692000
198.55999879	-89.84650000
198.59999879	-95.23605000
198.63999879	-95.23605000
198.67999879	-95.23605000
198.71999879	-88.04590000
198.75999879	-82.65633000
198.79999879	-73.67168000
198.83999879	-73.67168000
198.87999879	-71.87719000
198.91999879	-70.07660000
198.95999879	-66.48762000
198.99999879	-68.28211000
199.03999879	-68.28211000
199.07999879	-70.07660000
199.11999879	-68.28211000
199.15999879	-70.07660000
199.19999879	-68.28211000
199.23999879	-71.87719000
199.27999879	-71.87719000
199.31999879	-70.07660000
199.35999879	-64.68703000
199.39999879	-57.50298000
199.43999879	-50.31281000
199.47999879	-39.52757000
199.51999879	-30.54292000
199.55999879	-21.55827000
199.59999879	-10.77914000
199.63999879	0.00000000
199.67999879	10.77914000
199.71999879	23.35887000
199.75999879	34.13800000
199.79999879	46.71774000
199.83999879	59.29746000
199.87999879	73.67168000
199.91999878	88.04590000
199.95999878	104.22070000
199.99999878	120.39550000
200.03999878	134.76970000
200.07999878	145.54890000
200.11999878	150.94450000
