Time	Channel A
(us)	(mV)

0.00000000	41.32816000
0.04000000	30.54292000
0.08000000	19.76379000
0.12000000	8.98464900
0.16000000	0.00000000
0.20000000	-10.77914000
0.24000000	-21.55827000
0.28000000	-32.34352000
0.32000000	-41.32816000
0.36000000	-50.31281000
0.40000000	-59.29746000
0.44000000	-68.28211000
0.48000000	-75.47227000
0.52000000	-84.45692000
0.56000000	-89.84650000
0.60000000	-97.03055000
0.64000000	-104.22070000
0.68000000	-111.41090000
0.72000000	-116.80040000
0.76000000	-122.19000000
0.80000000	-125.78510000
0.83999999	-131.17470000
0.87999999	-134.76970000
0.91999999	-132.97520000
0.95999999	-132.97520000
0.99999999	-127.57960000
1.03999999	-123.99060000
1.07999999	-107.81580000
1.11999999	-98.83114000
1.15999999	-82.65633000
1.19999999	-79.06125000
1.23999999	-68.28211000
1.27999999	-62.89254000
1.31999999	-57.50298000
1.35999999	-52.10730000
1.39999999	-48.51222000
1.43999999	-43.12265000
1.47999999	-37.73308000
1.51999999	-32.34352000
1.55999999	-21.55827000
1.59999999	-12.57363000
1.63999999	0.00000000
1.67999999	14.37422000
1.71999999	30.54292000
1.75999999	48.51222000
1.79999999	62.89254000
1.83999999	79.06125000
1.87999999	93.44157000
1.91999999	109.61030000
1.95999999	122.19000000
1.99999999	132.97520000
2.03999999	141.95990000
2.07999999	147.34950000
2.11999999	147.34950000
2.15999999	141.95990000
2.19999999	134.76970000
2.23999999	127.57960000
2.27999999	116.80040000
2.31999999	107.81580000
2.35999999	100.62560000
2.39999999	91.64098000
2.43999999	82.65633000
2.47999998	73.67168000
2.51999998	64.68703000
2.55999998	53.90789000
2.59999998	46.71774000
2.63999998	35.93859000
2.67999998	26.95395000
2.71999998	16.16870000
2.75999998	5.38956800
2.79999998	-3.58897700
2.83999998	-14.37422000
2.87999998	-23.35887000
2.91999998	-32.34352000
2.95999998	-43.12265000
2.99999998	-52.10730000
3.03999998	-61.09195000
3.07999998	-70.07660000
3.11999998	-77.26676000
3.15999998	-86.25141000
3.19999998	-95.23605000
3.23999998	-102.42620000
3.27999998	-111.41090000
3.31999998	-118.59490000
3.35999998	-123.99060000
3.39999998	-125.78510000
3.43999998	-132.97520000
3.47999998	-122.19000000
3.51999998	-118.59490000
3.55999998	-107.81580000
3.59999998	-106.01520000
3.63999998	-98.83114000
3.67999998	-95.23605000
3.71999998	-91.64098000
3.75999998	-88.04590000
3.79999998	-86.25141000
3.83999998	-80.86184000
3.87999998	-79.06125000
3.91999998	-73.67168000
3.95999998	-70.07660000
3.99999998	-64.68703000
4.03999998	-55.70238000
4.07999998	-44.92325000
4.11999997	-43.12265000
4.15999997	-23.35887000
4.19999997	0.00000000
4.23999997	14.37422000
4.27999997	26.95395000
4.31999997	43.12265000
4.35999997	61.09195000
4.39999997	79.06125000
4.43999997	89.84650000
4.47999997	102.42620000
4.51999997	115.00600000
4.55999997	125.78510000
4.59999997	134.76970000
4.63999997	141.95990000
4.67999997	143.75440000
4.71999997	143.75440000
4.75999997	138.36480000
4.79999997	132.97520000
4.83999997	125.78510000
4.87999997	116.80040000
4.91999997	107.81580000
4.95999997	100.62560000
4.99999997	91.64098000
5.03999997	84.45692000
5.07999997	75.47227000
5.11999997	66.48762000
5.15999997	57.50298000
5.19999997	48.51222000
5.23999997	41.32816000
5.27999997	32.34352000
5.31999997	25.15336000
5.35999997	14.37422000
5.39999997	5.38956800
5.43999997	-3.58897700
5.47999997	-14.37422000
5.51999997	-25.15336000
5.55999997	-34.13800000
5.59999997	-44.92325000
5.63999997	-55.70238000
5.67999997	-64.68703000
5.71999997	-73.67168000
5.75999996	-82.65633000
5.79999996	-93.44157000
5.83999996	-100.62560000
5.87999996	-107.81580000
5.91999996	-115.00600000
5.95999996	-118.59490000
5.99999996	-123.99060000
6.03999996	-116.80040000
6.07999996	-115.00600000
6.11999996	-104.22070000
6.15999996	-102.42620000
6.19999996	-97.03055000
6.23999996	-93.44157000
6.27999996	-89.84650000
6.31999996	-88.04590000
6.35999996	-86.25141000
6.39999996	-82.65633000
6.43999996	-79.06125000
6.47999996	-77.26676000
6.51999996	-71.87719000
6.55999996	-64.68703000
6.59999996	-59.29746000
6.63999996	-50.31281000
6.67999996	-41.32816000
6.71999996	-28.74844000
6.75999996	-16.16870000
6.79999996	-1.79448800
6.83999996	14.37422000
6.87999996	30.54292000
6.91999996	46.71774000
6.95999996	61.09195000
6.99999996	77.26676000
7.03999996	89.84650000
7.07999996	102.42620000
7.11999996	115.00600000
7.15999996	125.78510000
7.19999996	136.56420000
7.23999996	141.95990000
7.27999996	143.75440000
7.31999996	143.75440000
7.35999996	140.15930000
7.39999996	132.97520000
7.43999995	125.78510000
7.47999995	116.80040000
7.51999995	109.61030000
7.55999995	102.42620000
7.59999995	95.23605000
7.63999995	88.04590000
7.67999995	80.86184000
7.71999995	73.67168000
7.75999995	64.68703000
7.79999995	57.50298000
7.83999995	48.51222000
7.87999995	39.52757000
7.91999995	30.54292000
7.95999995	19.76379000
7.99999995	8.98464900
8.03999995	-1.79448800
8.07999995	-14.37422000
8.11999995	-25.15336000
8.15999995	-35.93859000
8.19999995	-46.71774000
8.23999995	-57.50298000
8.27999995	-66.48762000
8.31999995	-75.47227000
8.35999995	-84.45692000
8.39999995	-91.64098000
8.43999995	-98.83114000
8.47999995	-104.22070000
8.51999995	-111.41090000
8.55999995	-115.00600000
8.59999995	-118.59490000
8.63999995	-122.19000000
8.67999995	-122.19000000
8.71999995	-122.19000000
8.75999995	-120.39550000
8.79999995	-118.59490000
8.83999995	-115.00600000
8.87999995	-109.61030000
8.91999995	-102.42620000
8.95999995	-97.03055000
8.99999995	-93.44157000
9.03999995	-84.45692000
9.07999994	-71.87719000
9.11999994	-61.09195000
9.15999994	-53.90789000
9.19999994	-44.92325000
9.23999994	-35.93859000
9.27999994	-25.15336000
9.31999994	-14.37422000
9.35999994	-5.38956800
9.39999994	7.18405700
9.43999994	16.16870000
9.47999994	26.95395000
9.51999994	35.93859000
9.55999994	46.71774000
9.59999994	57.50298000
9.63999994	66.48762000
9.67999994	77.26676000
9.71999994	88.04590000
9.75999994	98.83114000
9.79999994	109.61030000
9.83999994	120.39550000
9.87999994	129.38020000
9.91999994	134.76970000
9.95999994	138.36480000
9.99999994	140.15930000
10.03999994	136.56420000
10.07999994	131.17470000
10.11999994	123.99060000
10.15999994	115.00600000
10.19999994	107.81580000
10.23999994	98.83114000
10.27999994	89.84650000
10.31999994	80.86184000
10.35999994	70.07660000
10.39999994	59.29746000
10.43999994	48.51222000
10.47999994	37.73308000
10.51999994	28.74844000
10.55999994	17.96930000
10.59999994	7.18405700
10.63999994	-5.38956800
10.67999994	-14.37422000
10.71999993	-26.95395000
10.75999993	-37.73308000
10.79999993	-46.71774000
10.83999993	-57.50298000
10.87999993	-64.68703000
10.91999993	-73.67168000
10.95999993	-80.86184000
10.99999993	-88.04590000
11.03999993	-93.44157000
11.07999993	-100.62560000
11.11999993	-104.22070000
11.15999993	-111.41090000
11.19999993	-115.00600000
11.23999993	-118.59490000
11.27999993	-122.19000000
11.31999993	-123.99060000
11.35999993	-125.78510000
11.39999993	-125.78510000
11.43999993	-123.99060000
11.47999993	-120.39550000
11.51999993	-116.80040000
11.55999993	-111.41090000
11.59999993	-104.22070000
11.63999993	-95.23605000
11.67999993	-86.25141000
11.71999993	-77.26676000
11.75999993	-66.48762000
11.79999993	-55.70238000
11.83999993	-43.12265000
11.87999993	-34.13800000
11.91999993	-21.55827000
11.95999993	-10.77914000
11.99999993	0.00000000
12.03999993	12.57363000
12.07999993	21.55827000
12.11999993	32.34352000
12.15999993	43.12265000
12.19999993	52.10730000
12.23999993	61.09195000
12.27999993	70.07660000
12.31999993	79.06125000
12.35999992	88.04590000
12.39999992	98.83114000
12.43999992	107.81580000
12.47999992	116.80040000
12.51999992	123.99060000
12.55999992	131.17470000
12.59999992	134.76970000
12.63999992	136.56420000
12.67999992	134.76970000
12.71999992	129.38020000
12.75999992	122.19000000
12.79999992	115.00600000
12.83999992	107.81580000
12.87999992	98.83114000
12.91999992	88.04590000
12.95999992	77.26676000
12.99999992	66.48762000
13.03999992	53.90789000
13.07999992	43.12265000
13.11999992	30.54292000
13.15999992	19.76379000
13.19999992	8.98464900
13.23999992	-1.79448800
13.27999992	-12.57363000
13.31999992	-21.55827000
13.35999992	-32.34352000
13.39999992	-41.32816000
13.43999992	-50.31281000
13.47999992	-59.29746000
13.51999992	-66.48762000
13.55999992	-77.26676000
13.59999992	-82.65633000
13.63999992	-89.84650000
13.67999992	-97.03055000
13.71999992	-104.22070000
13.75999992	-109.61030000
13.79999992	-115.00600000
13.83999992	-118.59490000
13.87999992	-123.99060000
13.91999992	-123.99060000
13.95999992	-136.56420000
13.99999991	-136.56420000
14.03999991	-125.78510000
14.07999991	-122.19000000
14.11999991	-125.78510000
14.15999991	-120.39550000
14.19999991	-115.00600000
14.23999991	-102.42620000
14.27999991	-97.03055000
14.31999991	-86.25141000
14.35999991	-75.47227000
14.39999991	-64.68703000
14.43999991	-55.70238000
14.47999991	-41.32816000
14.51999991	-28.74844000
14.55999991	-19.76379000
14.59999991	-7.18405700
14.63999991	3.58897700
14.67999991	16.16870000
14.71999991	25.15336000
14.75999991	34.13800000
14.79999991	44.92325000
14.83999991	53.90789000
14.87999991	61.09195000
14.91999991	70.07660000
14.95999991	79.06125000
14.99999991	89.84650000
15.03999991	98.83114000
15.07999991	107.81580000
15.11999991	118.59490000
15.15999991	125.78510000
15.19999991	131.17470000
15.23999991	134.76970000
15.27999991	136.56420000
15.31999991	134.76970000
15.35999991	127.57960000
15.39999991	120.39550000
15.43999991	115.00600000
15.47999991	106.01520000
15.51999991	93.44157000
15.55999991	84.45692000
15.59999991	71.87719000
15.63999990	62.89254000
15.67999990	50.31281000
15.71999990	39.52757000
15.75999990	28.74844000
15.79999990	14.37422000
15.83999990	5.38956800
15.87999990	-3.58897700
15.91999990	-16.16870000
15.95999990	-26.95395000
15.99999990	-37.73308000
16.03999990	-44.92325000
16.07999990	-53.90789000
16.11999990	-64.68703000
16.15999990	-71.87719000
16.19999990	-79.06125000
16.23999990	-86.25141000
16.27999990	-93.44157000
16.31999990	-100.62560000
16.35999990	-107.81580000
16.39999990	-113.20540000
16.43999990	-118.59490000
16.47999990	-122.19000000
16.51999990	-127.57960000
16.55999990	-129.38020000
16.59999990	-127.57960000
16.63999990	-129.38020000
16.67999990	-113.20540000
16.71999990	-106.01520000
16.75999990	-89.84650000
16.79999990	-86.25141000
16.83999990	-79.06125000
16.87999990	-75.47227000
16.91999990	-71.87719000
16.95999990	-68.28211000
16.99999990	-66.48762000
17.03999990	-62.89254000
17.07999990	-59.29746000
17.11999990	-57.50298000
17.15999990	-50.31281000
17.19999990	-43.12265000
17.23999990	-35.93859000
17.27999989	-23.35887000
17.31999989	-7.18405700
17.35999989	10.77914000
17.39999989	28.74844000
17.43999989	48.51222000
17.47999989	68.28211000
17.51999989	84.45692000
17.55999989	102.42620000
17.59999989	118.59490000
17.63999989	134.76970000
17.67999989	145.54890000
17.71999989	152.73900000
17.75999989	156.33410000
17.79999989	152.73900000
17.83999989	143.75440000
17.87999989	134.76970000
17.91999989	127.57960000
17.95999989	116.80040000
17.99999989	107.81580000
18.03999989	98.83114000
18.07999989	91.64098000
18.11999989	84.45692000
18.15999989	75.47227000
18.19999989	66.48762000
18.23999989	59.29746000
18.27999989	50.31281000
18.31999989	43.12265000
18.35999989	34.13800000
18.39999989	23.35887000
18.43999989	14.37422000
18.47999989	3.58897700
18.51999989	-7.18405700
18.55999989	-16.16870000
18.59999989	-26.95395000
18.63999989	-35.93859000
18.67999989	-44.92325000
18.71999989	-53.90789000
18.75999989	-62.89254000
18.79999989	-71.87719000
18.83999989	-84.45692000
18.87999989	-91.64098000
18.91999989	-97.03055000
18.95999988	-104.22070000
18.99999988	-115.00600000
19.03999988	-122.19000000
19.07999988	-123.99060000
19.11999988	-122.19000000
19.15999988	-115.00600000
19.19999988	-106.01520000
19.23999988	-98.83114000
19.27999988	-95.23605000
19.31999988	-89.84650000
19.35999988	-86.25141000
19.39999988	-82.65633000
19.43999988	-80.86184000
19.47999988	-80.86184000
19.51999988	-77.26676000
19.55999988	-77.26676000
19.59999988	-73.67168000
19.63999988	-70.07660000
19.67999988	-64.68703000
19.71999988	-59.29746000
19.75999988	-50.31281000
19.79999988	-37.73308000
19.83999988	-23.35887000
19.87999988	-8.98464900
19.91999988	8.98464900
19.95999988	26.95395000
19.99999988	44.92325000
20.03999988	62.89254000
20.07999988	79.06125000
20.11999988	93.44157000
20.15999988	107.81580000
20.19999988	122.19000000
20.23999988	134.76970000
20.27999988	143.75440000
20.31999988	149.14400000
20.35999988	150.94450000
20.39999988	149.14400000
20.43999988	143.75440000
20.47999988	134.76970000
20.51999988	125.78510000
20.55999988	115.00600000
20.59999987	107.81580000
20.63999987	100.62560000
20.67999987	93.44157000
20.71999987	86.25141000
20.75999987	79.06125000
20.79999987	71.87719000
20.83999987	64.68703000
20.87999987	55.70238000
20.91999987	48.51222000
20.95999987	39.52757000
20.99999987	28.74844000
21.03999987	19.76379000
21.07999987	7.18405700
21.11999987	-3.58897700
21.15999987	-14.37422000
21.19999987	-25.15336000
21.23999987	-35.93859000
21.27999987	-44.92325000
21.31999987	-55.70238000
21.35999987	-64.68703000
21.39999987	-73.67168000
21.43999987	-80.86184000
21.47999987	-89.84650000
21.51999987	-95.23605000
21.55999987	-102.42620000
21.59999987	-102.42620000
21.63999987	-102.42620000
21.67999987	-100.62560000
21.71999987	-100.62560000
21.75999987	-98.83114000
21.79999987	-97.03055000
21.83999987	-95.23605000
21.87999987	-91.64098000
21.91999987	-89.84650000
21.95999987	-88.04590000
21.99999987	-86.25141000
22.03999987	-86.25141000
22.07999987	-82.65633000
22.11999987	-79.06125000
22.15999987	-73.67168000
22.19999987	-68.28211000
22.23999986	-61.09195000
22.27999986	-53.90789000
22.31999986	-44.92325000
22.35999986	-35.93859000
22.39999986	-23.35887000
22.43999986	-8.98464900
22.47999986	7.18405700
22.51999986	25.15336000
22.55999986	37.73308000
22.59999986	53.90789000
22.63999986	70.07660000
22.67999986	84.45692000
22.71999986	97.03055000
22.75999986	109.61030000
22.79999986	120.39550000
22.83999986	131.17470000
22.87999986	138.36480000
22.91999986	145.54890000
22.95999986	143.75440000
22.99999986	140.15930000
23.03999986	134.76970000
23.07999986	129.38020000
23.11999986	120.39550000
23.15999986	113.20540000
23.19999986	107.81580000
23.23999986	102.42620000
23.27999986	97.03055000
23.31999986	93.44157000
23.35999986	86.25141000
23.39999986	79.06125000
23.43999986	73.67168000
23.47999986	64.68703000
23.51999986	55.70238000
23.55999986	44.92325000
23.59999986	34.13800000
23.63999986	21.55827000
23.67999986	8.98464900
23.71999986	0.00000000
23.75999986	-8.98464900
23.79999986	-30.54292000
23.83999986	-41.32816000
23.87999985	-43.12265000
23.91999985	-52.10730000
23.95999985	-70.07660000
23.99999985	-79.06125000
24.03999985	-86.25141000
24.07999985	-86.25141000
24.11999985	-93.44157000
24.15999985	-100.62560000
24.19999985	-102.42620000
24.23999985	-106.01520000
24.27999985	-106.01520000
24.31999985	-109.61030000
24.35999985	-100.62560000
24.39999985	-95.23605000
24.43999985	-89.84650000
24.47999985	-86.25141000
24.51999985	-79.06125000
24.55999985	-79.06125000
24.59999985	-75.47227000
24.63999985	-73.67168000
24.67999985	-71.87719000
24.71999985	-70.07660000
24.75999985	-68.28211000
24.79999985	-64.68703000
24.83999985	-61.09195000
24.87999985	-57.50298000
24.91999985	-50.31281000
24.95999985	-41.32816000
24.99999985	-28.74844000
25.03999985	-14.37422000
25.07999985	1.79448800
25.11999985	17.96930000
25.15999985	35.93859000
25.19999985	55.70238000
25.23999985	71.87719000
25.27999985	86.25141000
25.31999985	100.62560000
25.35999985	115.00600000
25.39999985	127.57960000
25.43999985	136.56420000
25.47999985	143.75440000
25.51999984	147.34950000
25.55999984	145.54890000
25.59999984	132.97520000
25.63999984	118.59490000
25.67999984	107.81580000
25.71999984	98.83114000
25.75999984	95.23605000
25.79999984	100.62560000
25.83999984	107.81580000
25.87999984	115.00600000
25.91999984	125.78510000
25.95999984	127.57960000
25.99999984	120.39550000
26.03999984	104.22070000
26.07999984	82.65633000
26.11999984	61.09195000
26.15999984	41.32816000
26.19999984	21.55827000
26.23999984	3.58897700
26.27999984	-8.98464900
26.31999984	-21.55827000
26.35999984	-30.54292000
26.39999984	-39.52757000
26.43999984	-50.31281000
26.47999984	-61.09195000
26.51999984	-70.07660000
26.55999984	-77.26676000
26.59999984	-84.45692000
26.63999984	-91.64098000
26.67999984	-98.83114000
26.71999984	-100.62560000
26.75999984	-102.42620000
26.79999984	-104.22070000
26.83999984	-100.62560000
26.87999984	-95.23605000
26.91999984	-86.25141000
26.95999984	-80.86184000
26.99999984	-75.47227000
27.03999984	-75.47227000
27.07999984	-77.26676000
27.11999984	-79.06125000
27.15999983	-82.65633000
27.19999983	-86.25141000
27.23999983	-86.25141000
27.27999983	-86.25141000
27.31999983	-84.45692000
27.35999983	-79.06125000
27.39999983	-71.87719000
27.43999983	-62.89254000
27.47999983	-53.90789000
27.51999983	-43.12265000
27.55999983	-32.34352000
27.59999983	-21.55827000
27.63999983	-7.18405700
27.67999983	8.98464900
27.71999983	26.95395000
27.75999983	46.71774000
27.79999983	62.89254000
27.83999983	84.45692000
27.87999983	98.83114000
27.91999983	113.20540000
27.95999983	125.78510000
27.99999983	136.56420000
28.03999983	143.75440000
28.07999983	147.34950000
28.11999983	147.34950000
28.15999983	143.75440000
28.19999983	134.76970000
28.23999983	129.38020000
28.27999983	120.39550000
28.31999983	115.00600000
28.35999983	107.81580000
28.39999983	102.42620000
28.43999983	98.83114000
28.47999983	93.44157000
28.51999983	88.04590000
28.55999983	84.45692000
28.59999983	79.06125000
28.63999983	71.87719000
28.67999983	59.29746000
28.71999983	50.31281000
28.75999983	43.12265000
28.79999982	34.13800000
28.83999982	17.96930000
28.87999982	5.38956800
28.91999982	-7.18405700
28.95999982	-19.76379000
28.99999982	-32.34352000
29.03999982	-43.12265000
29.07999982	-53.90789000
29.11999982	-66.48762000
29.15999982	-73.67168000
29.19999982	-84.45692000
29.23999982	-91.64098000
29.27999982	-95.23605000
29.31999982	-100.62560000
29.35999982	-104.22070000
29.39999982	-106.01520000
29.43999982	-107.81580000
29.47999982	-109.61030000
29.51999982	-109.61030000
29.55999982	-107.81580000
29.59999982	-104.22070000
29.63999982	-97.03055000
29.67999982	-91.64098000
29.71999982	-80.86184000
29.75999982	-73.67168000
29.79999982	-71.87719000
29.83999982	-64.68703000
29.87999982	-62.89254000
29.91999982	-59.29746000
29.95999982	-59.29746000
29.99999982	-55.70238000
30.03999982	-55.70238000
30.07999982	-50.31281000
30.11999982	-44.92325000
30.15999982	-37.73308000
30.19999982	-28.74844000
30.23999982	-14.37422000
30.27999982	0.00000000
30.31999982	19.76379000
30.35999982	35.93859000
30.39999982	53.90789000
30.43999982	73.67168000
30.47999981	91.64098000
30.51999981	104.22070000
30.55999981	116.80040000
30.59999981	131.17470000
30.63999981	140.15930000
30.67999981	145.54890000
30.71999981	149.14400000
30.75999981	147.34950000
30.79999981	141.95990000
30.83999981	132.97520000
30.87999981	127.57960000
30.91999981	118.59490000
30.95999981	111.41090000
30.99999981	104.22070000
31.03999981	98.83114000
31.07999981	91.64098000
31.11999981	84.45692000
31.15999981	77.26676000
31.19999981	70.07660000
31.23999981	61.09195000
31.27999981	53.90789000
31.31999981	43.12265000
31.35999981	34.13800000
31.39999981	23.35887000
31.43999981	12.57363000
31.47999981	1.79448800
31.51999981	-8.98464900
31.55999981	-21.55827000
31.59999981	-32.34352000
31.63999981	-43.12265000
31.67999981	-52.10730000
31.71999981	-61.09195000
31.75999981	-70.07660000
31.79999981	-79.06125000
31.83999981	-86.25141000
31.87999981	-93.44157000
31.91999981	-100.62560000
31.95999981	-106.01520000
31.99999981	-111.41090000
32.03999981	-115.00600000
32.07999981	-116.80040000
32.11999980	-118.59490000
32.15999980	-118.59490000
32.19999980	-116.80040000
32.23999980	-113.20540000
32.27999980	-109.61030000
32.31999980	-104.22070000
32.35999980	-98.83114000
32.39999980	-93.44157000
32.43999980	-86.25141000
32.47999980	-79.06125000
32.51999980	-71.87719000
32.55999980	-62.89254000
32.59999980	-55.70238000
32.63999980	-46.71774000
32.67999980	-35.93859000
32.71999980	-26.95395000
32.75999980	-16.16870000
32.79999980	-7.18405700
32.83999980	5.38956800
32.87999980	14.37422000
32.91999980	26.95395000
32.95999980	35.93859000
32.99999980	46.71774000
33.03999980	57.50298000
33.07999980	64.68703000
33.11999980	77.26676000
33.15999980	86.25141000
33.19999980	98.83114000
33.23999980	107.81580000
33.27999980	118.59490000
33.31999980	127.57960000
33.35999980	134.76970000
33.39999980	138.36480000
33.43999980	140.15930000
33.47999980	136.56420000
33.51999980	131.17470000
33.55999980	122.19000000
33.59999980	115.00600000
33.63999980	88.04590000
33.67999980	61.09195000
33.71999980	66.48762000
33.75999979	84.45692000
33.79999979	75.47227000
33.83999979	64.68703000
33.87999979	64.68703000
33.91999979	82.65633000
33.95999979	79.06125000
33.99999979	55.70238000
34.03999979	26.95395000
34.07999979	3.58897700
34.11999979	-14.37422000
34.15999979	-25.15336000
34.19999979	-44.92325000
34.23999979	-66.48762000
34.27999979	-73.67168000
34.31999979	-70.07660000
34.35999979	-71.87719000
34.39999979	-86.25141000
34.43999979	-97.03055000
34.47999979	-100.62560000
34.51999979	-100.62560000
34.55999979	-106.01520000
34.59999979	-115.00600000
34.63999979	-116.80040000
34.67999979	-118.59490000
34.71999979	-111.41090000
34.75999979	-106.01520000
34.79999979	-95.23605000
34.83999979	-91.64098000
34.87999979	-82.65633000
34.91999979	-73.67168000
34.95999979	-68.28211000
34.99999979	-70.07660000
35.03999979	-71.87719000
35.07999979	-71.87719000
35.11999979	-73.67168000
35.15999979	-75.47227000
35.19999979	-77.26676000
35.23999979	-75.47227000
35.27999979	-70.07660000
35.31999979	-59.29746000
35.35999979	-46.71774000
35.39999978	-32.34352000
35.43999978	-16.16870000
35.47999978	0.00000000
35.51999978	17.96930000
35.55999978	35.93859000
35.59999978	52.10730000
35.63999978	68.28211000
35.67999978	82.65633000
35.71999978	100.62560000
35.75999978	116.80040000
35.79999978	129.38020000
35.83999978	143.75440000
35.87999978	152.73900000
35.91999978	158.12860000
35.95999978	154.53350000
35.99999978	147.34950000
36.03999978	136.56420000
36.07999978	125.78510000
36.11999978	115.00600000
36.15999978	106.01520000
36.19999978	98.83114000
36.23999978	91.64098000
36.27999978	86.25141000
36.31999978	82.65633000
36.35999978	77.26676000
36.39999978	71.87719000
36.43999978	64.68703000
36.47999978	57.50298000
36.51999978	50.31281000
36.55999978	41.32816000
36.59999978	28.74844000
36.63999978	17.96930000
36.67999978	3.58897700
36.71999978	-8.98464900
36.75999978	-21.55827000
36.79999978	-32.34352000
36.83999978	-43.12265000
36.87999978	-52.10730000
36.91999978	-61.09195000
36.95999978	-68.28211000
36.99999978	-77.26676000
37.03999977	-84.45692000
37.07999977	-93.44157000
37.11999977	-100.62560000
37.15999977	-107.81580000
37.19999977	-113.20540000
37.23999977	-116.80040000
37.27999977	-118.59490000
37.31999977	-118.59490000
37.35999977	-118.59490000
37.39999977	-115.00600000
37.43999977	-111.41090000
37.47999977	-107.81580000
37.51999977	-104.22070000
37.55999977	-98.83114000
37.59999977	-93.44157000
37.63999977	-88.04590000
37.67999977	-80.86184000
37.71999977	-73.67168000
37.75999977	-64.68703000
37.79999977	-57.50298000
37.83999977	-50.31281000
37.87999977	-39.52757000
37.91999977	-28.74844000
37.95999977	-19.76379000
37.99999977	-8.98464900
38.03999977	0.00000000
38.07999977	10.77914000
38.11999977	21.55827000
38.15999977	32.34352000
38.19999977	43.12265000
38.23999977	53.90789000
38.27999977	64.68703000
38.31999977	75.47227000
38.35999977	86.25141000
38.39999977	97.03055000
38.43999977	107.81580000
38.47999977	118.59490000
38.51999977	123.99060000
38.55999977	129.38020000
38.59999977	140.15930000
38.63999977	143.75440000
38.67999976	138.36480000
38.71999976	132.97520000
38.75999976	127.57960000
38.79999976	118.59490000
38.83999976	109.61030000
38.87999976	100.62560000
38.91999976	91.64098000
38.95999976	82.65633000
38.99999976	71.87719000
39.03999976	61.09195000
39.07999976	50.31281000
39.11999976	37.73308000
39.15999976	26.95395000
39.19999976	17.96930000
39.23999976	7.18405700
39.27999976	-1.79448800
39.31999976	-12.57363000
39.35999976	-23.35887000
39.39999976	-32.34352000
39.43999976	-41.32816000
39.47999976	-50.31281000
39.51999976	-59.29746000
39.55999976	-66.48762000
39.59999976	-75.47227000
39.63999976	-82.65633000
39.67999976	-88.04590000
39.71999976	-95.23605000
39.75999976	-100.62560000
39.79999976	-106.01520000
39.83999976	-113.20540000
39.87999976	-116.80040000
39.91999976	-120.39550000
39.95999976	-122.19000000
39.99999976	-123.99060000
40.03999976	-123.99060000
40.07999976	-122.19000000
40.11999976	-116.80040000
40.15999976	-113.20540000
40.19999976	-107.81580000
40.23999976	-98.83114000
40.27999976	-91.64098000
40.31999975	-80.86184000
40.35999975	-71.87719000
40.39999975	-62.89254000
40.43999975	-53.90789000
40.47999975	-43.12265000
40.51999975	-35.93859000
40.55999975	-25.15336000
40.59999975	-14.37422000
40.63999975	-3.58897700
40.67999975	5.38956800
40.71999975	16.16870000
40.75999975	26.95395000
40.79999975	39.52757000
40.83999975	48.51222000
40.87999975	59.29746000
40.91999975	70.07660000
40.95999975	79.06125000
40.99999975	89.84650000
41.03999975	100.62560000
41.07999975	111.41090000
41.11999975	120.39550000
41.15999975	127.57960000
41.19999975	134.76970000
41.23999975	136.56420000
41.27999975	136.56420000
41.31999975	134.76970000
41.35999975	129.38020000
41.39999975	122.19000000
41.43999975	113.20540000
41.47999975	104.22070000
41.51999975	95.23605000
41.55999975	86.25141000
41.59999975	75.47227000
41.63999975	64.68703000
41.67999975	53.90789000
41.71999975	43.12265000
41.75999975	32.34352000
41.79999975	21.55827000
41.83999975	12.57363000
41.87999975	0.00000000
41.91999975	-8.98464900
41.95999974	-19.76379000
41.99999974	-28.74844000
42.03999974	-39.52757000
42.07999974	-48.51222000
42.11999974	-57.50298000
42.15999974	-66.48762000
42.19999974	-73.67168000
42.23999974	-80.86184000
42.27999974	-88.04590000
42.31999974	-93.44157000
42.35999974	-100.62560000
42.39999974	-106.01520000
42.43999974	-107.81580000
42.47999974	-107.81580000
42.51999974	-106.01520000
42.55999974	-104.22070000
42.59999974	-102.42620000
42.63999974	-100.62560000
42.67999974	-97.03055000
42.71999974	-97.03055000
42.75999974	-93.44157000
42.79999974	-91.64098000
42.83999974	-88.04590000
42.87999974	-86.25141000
42.91999974	-82.65633000
42.95999974	-79.06125000
42.99999974	-73.67168000
43.03999974	-70.07660000
43.07999974	-62.89254000
43.11999974	-55.70238000
43.15999974	-44.92325000
43.19999974	-35.93859000
43.23999974	-23.35887000
43.27999974	-8.98464900
43.31999974	5.38956800
43.35999974	23.35887000
43.39999974	41.32816000
43.43999974	61.09195000
43.47999974	71.87719000
43.51999974	82.65633000
43.55999974	107.81580000
43.59999974	125.78510000
43.63999973	131.17470000
43.67999973	138.36480000
43.71999973	145.54890000
43.75999973	152.73900000
43.79999973	149.14400000
43.83999973	138.36480000
43.87999973	132.97520000
43.91999973	123.99060000
43.95999973	115.00600000
43.99999973	106.01520000
44.03999973	100.62560000
44.07999973	93.44157000
44.11999973	86.25141000
44.15999973	80.86184000
44.19999973	77.26676000
44.23999973	70.07660000
44.27999973	61.09195000
44.31999973	53.90789000
44.35999973	44.92325000
44.39999973	34.13800000
44.43999973	21.55827000
44.47999973	10.77914000
44.51999973	-1.79448800
44.55999973	-14.37422000
44.59999973	-26.95395000
44.63999973	-35.93859000
44.67999973	-44.92325000
44.71999973	-55.70238000
44.75999973	-64.68703000
44.79999973	-71.87719000
44.83999973	-80.86184000
44.87999973	-88.04590000
44.91999973	-95.23605000
44.95999973	-100.62560000
44.99999973	-106.01520000
45.03999973	-109.61030000
45.07999973	-109.61030000
45.11999973	-107.81580000
45.15999973	-104.22070000
45.19999973	-102.42620000
45.23999973	-98.83114000
45.27999972	-95.23605000
45.31999972	-91.64098000
45.35999972	-88.04590000
45.39999972	-86.25141000
45.43999972	-80.86184000
45.47999972	-79.06125000
45.51999972	-75.47227000
45.55999972	-71.87719000
45.59999972	-68.28211000
45.63999972	-64.68703000
45.67999972	-57.50298000
45.71999972	-52.10730000
45.75999972	-41.32816000
45.79999972	-30.54292000
45.83999972	-14.37422000
45.87999972	0.00000000
45.91999972	16.16870000
45.95999972	30.54292000
45.99999972	46.71774000
46.03999972	62.89254000
46.07999972	77.26676000
46.11999972	91.64098000
46.15999972	102.42620000
46.19999972	115.00600000
46.23999972	125.78510000
46.27999972	132.97520000
46.31999972	140.15930000
46.35999972	143.75440000
46.39999972	141.95990000
46.43999972	138.36480000
46.47999972	132.97520000
46.51999972	125.78510000
46.55999972	118.59490000
46.59999972	109.61030000
46.63999972	104.22070000
46.67999972	97.03055000
46.71999972	89.84650000
46.75999972	82.65633000
46.79999972	75.47227000
46.83999972	64.68703000
46.87999972	57.50298000
46.91999971	50.31281000
46.95999971	41.32816000
46.99999971	30.54292000
47.03999971	21.55827000
47.07999971	8.98464900
47.11999971	0.00000000
47.15999971	-12.57363000
47.19999971	-23.35887000
47.23999971	-34.13800000
47.27999971	-44.92325000
47.31999971	-53.90789000
47.35999971	-64.68703000
47.39999971	-71.87719000
47.43999971	-80.86184000
47.47999971	-88.04590000
47.51999971	-95.23605000
47.55999971	-100.62560000
47.59999971	-107.81580000
47.63999971	-111.41090000
47.67999971	-115.00600000
47.71999971	-113.20540000
47.75999971	-109.61030000
47.79999971	-104.22070000
47.83999971	-93.44157000
47.87999971	-89.84650000
47.91999971	-84.45692000
47.95999971	-80.86184000
47.99999971	-79.06125000
48.03999971	-77.26676000
48.07999971	-73.67168000
48.11999971	-71.87719000
48.15999971	-68.28211000
48.19999971	-64.68703000
48.23999971	-61.09195000
48.27999971	-57.50298000
48.31999971	-50.31281000
48.35999971	-46.71774000
48.39999971	-37.73308000
48.43999971	-19.76379000
48.47999971	-1.79448800
48.51999971	12.57363000
48.55999970	28.74844000
48.59999970	44.92325000
48.63999970	62.89254000
48.67999970	79.06125000
48.71999970	93.44157000
48.75999970	107.81580000
48.79999970	122.19000000
48.83999970	132.97520000
48.87999970	141.95990000
48.91999970	147.34950000
48.95999970	147.34950000
48.99999970	143.75440000
49.03999970	138.36480000
49.07999970	131.17470000
49.11999970	122.19000000
49.15999970	115.00600000
49.19999970	107.81580000
49.23999970	102.42620000
49.27999970	95.23605000
49.31999970	89.84650000
49.35999970	82.65633000
49.39999970	77.26676000
49.43999970	70.07660000
49.47999970	61.09195000
49.51999970	53.90789000
49.55999970	43.12265000
49.59999970	32.34352000
49.63999970	23.35887000
49.67999970	10.77914000
49.71999970	0.00000000
49.75999970	-14.37422000
49.79999970	-25.15336000
49.83999970	-35.93859000
49.87999970	-48.51222000
49.91999970	-57.50298000
49.95999970	-64.68703000
49.99999970	-73.67168000
50.03999970	-82.65633000
50.07999970	-89.84650000
50.11999970	-97.03055000
50.15999970	-102.42620000
50.19999969	-107.81580000
50.23999969	-113.20540000
50.27999969	-115.00600000
50.31999969	-116.80040000
50.35999969	-116.80040000
50.39999969	-116.80040000
50.43999969	-115.00600000
50.47999969	-111.41090000
50.51999969	-107.81580000
50.55999969	-102.42620000
50.59999969	-97.03055000
50.63999969	-91.64098000
50.67999969	-84.45692000
50.71999969	-77.26676000
50.75999969	-68.28211000
50.79999969	-61.09195000
50.83999969	-52.10730000
50.87999969	-43.12265000
50.91999969	-34.13800000
50.95999969	-23.35887000
50.99999969	-14.37422000
51.03999969	-3.58897700
51.07999969	7.18405700
51.11999969	17.96930000
51.15999969	28.74844000
51.19999969	41.32816000
51.23999969	50.31281000
51.27999969	62.89254000
51.31999969	71.87719000
51.35999969	82.65633000
51.39999969	93.44157000
51.43999969	104.22070000
51.47999969	115.00600000
51.51999969	125.78510000
51.55999969	132.97520000
51.59999969	138.36480000
51.63999969	141.95990000
51.67999969	140.15930000
51.71999969	134.76970000
51.75999969	129.38020000
51.79999969	120.39550000
51.83999968	113.20540000
51.87999968	106.01520000
51.91999968	97.03055000
51.95999968	86.25141000
51.99999968	77.26676000
52.03999968	68.28211000
52.07999968	57.50298000
52.11999968	46.71774000
52.15999968	35.93859000
52.19999968	25.15336000
52.23999968	16.16870000
52.27999968	5.38956800
52.31999968	-7.18405700
52.35999968	-17.96930000
52.39999968	-28.74844000
52.43999968	-39.52757000
52.47999968	-50.31281000
52.51999968	-57.50298000
52.55999968	-66.48762000
52.59999968	-73.67168000
52.63999968	-84.45692000
52.67999968	-88.04590000
52.71999968	-93.44157000
52.75999968	-100.62560000
52.79999968	-104.22070000
52.83999968	-109.61030000
52.87999968	-113.20540000
52.91999968	-113.20540000
52.95999968	-115.00600000
52.99999968	-109.61030000
53.03999968	-102.42620000
53.07999968	-97.03055000
53.11999968	-95.23605000
53.15999968	-89.84650000
53.19999968	-86.25141000
53.23999968	-82.65633000
53.27999968	-80.86184000
53.31999968	-79.06125000
53.35999968	-84.45692000
53.39999968	-70.07660000
53.43999968	-61.09195000
53.47999967	-61.09195000
53.51999967	-59.29746000
53.55999967	-50.31281000
53.59999967	-37.73308000
53.63999967	-23.35887000
53.67999967	-10.77914000
53.71999967	7.18405700
53.75999967	25.15336000
53.79999967	43.12265000
53.83999967	59.29746000
53.87999967	75.47227000
53.91999967	91.64098000
53.95999967	104.22070000
53.99999967	116.80040000
54.03999967	129.38020000
54.07999967	138.36480000
54.11999967	143.75440000
54.15999967	145.54890000
54.19999967	145.54890000
54.23999967	140.15930000
54.27999967	132.97520000
54.31999967	123.99060000
54.35999967	116.80040000
54.39999967	107.81580000
54.43999967	100.62560000
54.47999967	95.23605000
54.51999967	89.84650000
54.55999967	82.65633000
54.59999967	75.47227000
54.63999967	68.28211000
54.67999967	59.29746000
54.71999967	52.10730000
54.75999967	43.12265000
54.79999967	32.34352000
54.83999967	21.55827000
54.87999967	10.77914000
54.91999967	0.00000000
54.95999967	-10.77914000
54.99999967	-23.35887000
55.03999967	-34.13800000
55.07999967	-43.12265000
55.11999967	-53.90789000
55.15999966	-62.89254000
55.19999966	-71.87719000
55.23999966	-80.86184000
55.27999966	-88.04590000
55.31999966	-93.44157000
55.35999966	-100.62560000
55.39999966	-100.62560000
55.43999966	-102.42620000
55.47999966	-100.62560000
55.51999966	-100.62560000
55.55999966	-98.83114000
55.59999966	-97.03055000
55.63999966	-95.23605000
55.67999966	-93.44157000
55.71999966	-91.64098000
55.75999966	-89.84650000
55.79999966	-88.04590000
55.83999966	-86.25141000
55.87999966	-84.45692000
55.91999966	-80.86184000
55.95999966	-77.26676000
55.99999966	-71.87719000
56.03999966	-64.68703000
56.07999966	-57.50298000
56.11999966	-48.51222000
56.15999966	-37.73308000
56.19999966	-26.95395000
56.23999966	-12.57363000
56.27999966	1.79448800
56.31999966	17.96930000
56.35999966	34.13800000
56.39999966	52.10730000
56.43999966	66.48762000
56.47999966	80.86184000
56.51999966	93.44157000
56.55999966	106.01520000
56.59999966	118.59490000
56.63999966	129.38020000
56.67999966	136.56420000
56.71999966	141.95990000
56.75999966	143.75440000
56.79999965	141.95990000
56.83999965	136.56420000
56.87999965	129.38020000
56.91999965	123.99060000
56.95999965	118.59490000
56.99999965	111.41090000
57.03999965	106.01520000
57.07999965	100.62560000
57.11999965	93.44157000
57.15999965	86.25141000
57.19999965	80.86184000
57.23999965	73.67168000
57.27999965	64.68703000
57.31999965	57.50298000
57.35999965	48.51222000
57.39999965	35.93859000
57.43999965	25.15336000
57.47999965	12.57363000
57.51999965	0.00000000
57.55999965	-10.77914000
57.59999965	-23.35887000
57.63999965	-35.93859000
57.67999965	-44.92325000
57.71999965	-57.50298000
57.75999965	-64.68703000
57.79999965	-73.67168000
57.83999965	-82.65633000
57.87999965	-88.04590000
57.91999965	-95.23605000
57.95999965	-100.62560000
57.99999965	-104.22070000
58.03999965	-107.81580000
58.07999965	-111.41090000
58.11999965	-111.41090000
58.15999965	-113.20540000
58.19999965	-115.00600000
58.23999965	-113.20540000
58.27999965	-107.81580000
58.31999965	-91.64098000
58.35999965	-88.04590000
58.39999965	-73.67168000
58.43999964	-66.48762000
58.47999964	-44.92325000
58.51999964	-25.15336000
58.55999964	-30.54292000
58.59999964	-52.10730000
58.63999964	-52.10730000
58.67999964	-48.51222000
58.71999964	-62.89254000
58.75999964	-80.86184000
58.79999964	-79.06125000
58.83999964	-57.50298000
58.87999964	-26.95395000
58.91999964	0.00000000
58.95999964	19.76379000
58.99999964	37.73308000
59.03999964	68.28211000
59.07999964	93.44157000
59.11999964	102.42620000
59.15999964	106.01520000
59.19999964	116.80040000
59.23999964	136.56420000
59.27999964	150.94450000
59.31999964	156.33410000
59.35999964	154.53350000
59.39999964	154.53350000
59.43999964	149.14400000
59.47999964	141.95990000
59.51999964	131.17470000
59.55999964	120.39550000
59.59999964	111.41090000
59.63999964	102.42620000
59.67999964	91.64098000
59.71999964	79.06125000
59.75999964	68.28211000
59.79999964	59.29746000
59.83999964	53.90789000
59.87999964	50.31281000
59.91999964	46.71774000
59.95999964	39.52757000
59.99999964	32.34352000
60.03999964	26.95395000
60.07999963	19.76379000
60.11999963	7.18405700
60.15999963	-7.18405700
60.19999963	-21.55827000
60.23999963	-35.93859000
60.27999963	-46.71774000
60.31999963	-57.50298000
60.35999963	-66.48762000
60.39999963	-73.67168000
60.43999963	-79.06125000
60.47999963	-82.65633000
60.51999963	-89.84650000
60.55999963	-98.83114000
60.59999963	-107.81580000
60.63999963	-115.00600000
60.67999963	-120.39550000
60.71999963	-125.78510000
60.75999963	-127.57960000
60.79999963	-125.78510000
60.83999963	-122.19000000
60.87999963	-116.80040000
60.91999963	-111.41090000
60.95999963	-104.22070000
60.99999963	-97.03055000
61.03999963	-89.84650000
61.07999963	-82.65633000
61.11999963	-75.47227000
61.15999963	-68.28211000
61.19999963	-61.09195000
61.23999963	-52.10730000
61.27999963	-43.12265000
61.31999963	-34.13800000
61.35999963	-25.15336000
61.39999963	-14.37422000
61.43999963	-3.58897700
61.47999963	7.18405700
61.51999963	16.16870000
61.55999963	26.95395000
61.59999963	35.93859000
61.63999963	48.51222000
61.67999963	57.50298000
61.71999962	64.68703000
61.75999962	73.67168000
61.79999962	84.45692000
61.83999962	93.44157000
61.87999962	106.01520000
61.91999962	116.80040000
61.95999962	129.38020000
61.99999962	136.56420000
62.03999962	141.95990000
62.07999962	143.75440000
62.11999962	140.15930000
62.15999962	132.97520000
62.19999962	125.78510000
62.23999962	115.00600000
62.27999962	106.01520000
62.31999962	97.03055000
62.35999962	86.25141000
62.39999962	77.26676000
62.43999962	68.28211000
62.47999962	57.50298000
62.51999962	46.71774000
62.55999962	35.93859000
62.59999962	25.15336000
62.63999962	14.37422000
62.67999962	3.58897700
62.71999962	-7.18405700
62.75999962	-16.16870000
62.79999962	-28.74844000
62.83999962	-37.73308000
62.87999962	-50.31281000
62.91999962	-57.50298000
62.95999962	-64.68703000
62.99999962	-71.87719000
63.03999962	-79.06125000
63.07999962	-86.25141000
63.11999962	-89.84650000
63.15999962	-95.23605000
63.19999962	-113.20540000
63.23999962	-107.81580000
63.27999962	-107.81580000
63.31999962	-115.00600000
63.35999961	-118.59490000
63.39999961	-122.19000000
63.43999961	-109.61030000
63.47999961	-102.42620000
63.51999961	-95.23605000
63.55999961	-91.64098000
63.59999961	-84.45692000
63.63999961	-80.86184000
63.67999961	-77.26676000
63.71999961	-71.87719000
63.75999961	-70.07660000
63.79999961	-68.28211000
63.83999961	-64.68703000
63.87999961	-59.29746000
63.91999961	-53.90789000
63.95999961	-50.31281000
63.99999961	-43.12265000
64.03999961	-32.34352000
64.07999961	-17.96930000
64.11999961	-3.58897700
64.15999961	14.37422000
64.19999961	30.54292000
64.23999961	48.51222000
64.27999961	66.48762000
64.31999961	84.45692000
64.35999961	98.83114000
64.39999961	115.00600000
64.43999961	129.38020000
64.47999961	140.15930000
64.51999961	149.14400000
64.55999961	150.94450000
64.59999961	149.14400000
64.63999961	143.75440000
64.67999961	134.76970000
64.71999961	127.57960000
64.75999961	116.80040000
64.79999961	107.81580000
64.83999961	102.42620000
64.87999961	93.44157000
64.91999961	88.04590000
64.95999961	80.86184000
64.99999960	75.47227000
65.03999960	68.28211000
65.07999960	59.29746000
65.11999960	52.10730000
65.15999960	43.12265000
65.19999960	30.54292000
65.23999960	19.76379000
65.27999960	7.18405700
65.31999960	-3.58897700
65.35999960	-14.37422000
65.39999960	-25.15336000
65.43999960	-35.93859000
65.47999960	-44.92325000
65.51999960	-55.70238000
65.55999960	-62.89254000
65.59999960	-71.87719000
65.63999960	-79.06125000
65.67999960	-86.25141000
65.71999960	-93.44157000
65.75999960	-100.62560000
65.79999960	-107.81580000
65.83999960	-113.20540000
65.87999960	-116.80040000
65.91999960	-118.59490000
65.95999960	-120.39550000
65.99999960	-120.39550000
66.03999960	-118.59490000
66.07999960	-116.80040000
66.11999960	-113.20540000
66.15999960	-107.81580000
66.19999960	-102.42620000
66.23999960	-97.03055000
66.27999960	-88.04590000
66.31999960	-71.87719000
66.35999960	-46.71774000
66.39999960	-28.74844000
66.43999960	-30.54292000
66.47999960	-41.32816000
66.51999960	-37.73308000
66.55999960	-35.93859000
66.59999960	-46.71774000
66.63999959	-57.50298000
66.67999959	-53.90789000
66.71999959	-28.74844000
66.75999959	1.79448800
66.79999959	26.95395000
66.83999959	41.32816000
66.87999959	61.09195000
66.91999959	82.65633000
66.95999959	98.83114000
66.99999959	102.42620000
67.03999959	102.42620000
67.07999959	111.41090000
67.11999959	125.78510000
67.15999959	138.36480000
67.19999959	141.95990000
67.23999959	143.75440000
67.27999959	143.75440000
67.31999959	145.54890000
67.35999959	141.95990000
67.39999959	131.17470000
67.43999959	120.39550000
67.47999959	109.61030000
67.51999959	98.83114000
67.55999959	84.45692000
67.59999959	68.28211000
67.63999959	52.10730000
67.67999959	37.73308000
67.71999959	28.74844000
67.75999959	25.15336000
67.79999959	19.76379000
67.83999959	12.57363000
67.87999959	7.18405700
67.91999959	3.58897700
67.95999959	-1.79448800
67.99999959	-12.57363000
68.03999959	-26.95395000
68.07999959	-44.92325000
68.11999959	-52.10730000
68.15999959	-59.29746000
68.19999959	-70.07660000
68.23999959	-80.86184000
68.27999959	-86.25141000
68.31999958	-89.84650000
68.35999958	-95.23605000
68.39999958	-100.62560000
68.43999958	-107.81580000
68.47999958	-115.00600000
68.51999958	-118.59490000
68.55999958	-125.78510000
68.59999958	-120.39550000
68.63999958	-118.59490000
68.67999958	-107.81580000
68.71999958	-102.42620000
68.75999958	-91.64098000
68.79999958	-86.25141000
68.83999958	-79.06125000
68.87999958	-73.67168000
68.91999958	-70.07660000
68.95999958	-68.28211000
68.99999958	-66.48762000
69.03999958	-64.68703000
69.07999958	-61.09195000
69.11999958	-57.50298000
69.15999958	-52.10730000
69.19999958	-44.92325000
69.23999958	-35.93859000
69.27999958	-23.35887000
69.31999958	-8.98464900
69.35999958	7.18405700
69.39999958	26.95395000
69.43999958	46.71774000
69.47999958	64.68703000
69.51999958	79.06125000
69.55999958	95.23605000
69.59999958	109.61030000
69.63999958	122.19000000
69.67999958	134.76970000
69.71999958	143.75440000
69.75999958	149.14400000
69.79999958	150.94450000
69.83999958	147.34950000
69.87999958	141.95990000
69.91999958	134.76970000
69.95999957	123.99060000
69.99999957	113.20540000
70.03999957	104.22070000
70.07999957	95.23605000
70.11999957	86.25141000
70.15999957	79.06125000
70.19999957	73.67168000
70.23999957	66.48762000
70.27999957	59.29746000
70.31999957	50.31281000
70.35999957	41.32816000
70.39999957	32.34352000
70.43999957	19.76379000
70.47999957	8.98464900
70.51999957	-1.79448800
70.55999957	-12.57363000
70.59999957	-23.35887000
70.63999957	-32.34352000
70.67999957	-41.32816000
70.71999957	-50.31281000
70.75999957	-57.50298000
70.79999957	-66.48762000
70.83999957	-73.67168000
70.87999957	-80.86184000
70.91999957	-89.84650000
70.95999957	-98.83114000
70.99999957	-104.22070000
71.03999957	-111.41090000
71.07999957	-116.80040000
71.11999957	-120.39550000
71.15999957	-122.19000000
71.19999957	-123.99060000
71.23999957	-123.99060000
71.27999957	-120.39550000
71.31999957	-116.80040000
71.35999957	-113.20540000
71.39999957	-107.81580000
71.43999957	-98.83114000
71.47999957	-91.64098000
71.51999957	-84.45692000
71.55999957	-75.47227000
71.59999956	-66.48762000
71.63999956	-57.50298000
71.67999956	-46.71774000
71.71999956	-37.73308000
71.75999956	-28.74844000
71.79999956	-16.16870000
71.83999956	-7.18405700
71.87999956	3.58897700
71.91999956	14.37422000
71.95999956	23.35887000
71.99999956	34.13800000
72.03999956	43.12265000
72.07999956	53.90789000
72.11999956	61.09195000
72.15999956	71.87719000
72.19999956	82.65633000
72.23999956	93.44157000
72.27999956	104.22070000
72.31999956	115.00600000
72.35999956	123.99060000
72.39999956	131.17470000
72.43999956	136.56420000
72.47999956	140.15930000
72.51999956	138.36480000
72.55999956	136.56420000
72.59999956	129.38020000
72.63999956	122.19000000
72.67999956	113.20540000
72.71999956	104.22070000
72.75999956	93.44157000
72.79999956	82.65633000
72.83999956	71.87719000
72.87999956	61.09195000
72.91999956	48.51222000
72.95999956	39.52757000
72.99999956	26.95395000
73.03999956	7.18405700
73.07999956	5.38956800
73.11999956	1.79448800
73.15999956	-12.57363000
73.19999956	-28.74844000
73.23999955	-39.52757000
73.27999955	-44.92325000
73.31999955	-52.10730000
73.35999955	-64.68703000
73.39999955	-71.87719000
73.43999955	-75.47227000
73.47999955	-82.65633000
73.51999955	-91.64098000
73.55999955	-97.03055000
73.59999955	-102.42620000
73.63999955	-107.81580000
73.67999955	-111.41090000
73.71999955	-111.41090000
73.75999955	-109.61030000
73.79999955	-107.81580000
73.83999955	-102.42620000
73.87999955	-100.62560000
73.91999955	-95.23605000
73.95999955	-93.44157000
73.99999955	-89.84650000
74.03999955	-88.04590000
74.07999955	-84.45692000
74.11999955	-82.65633000
74.15999955	-79.06125000
74.19999955	-75.47227000
74.23999955	-70.07660000
74.27999955	-64.68703000
74.31999955	-59.29746000
74.35999955	-53.90789000
74.39999955	-43.12265000
74.43999955	-32.34352000
74.47999955	-17.96930000
74.51999955	-5.38956800
74.55999955	14.37422000
74.59999955	32.34352000
74.63999955	50.31281000
74.67999955	68.28211000
74.71999955	80.86184000
74.75999955	98.83114000
74.79999955	113.20540000
74.83999955	123.99060000
74.87999954	136.56420000
74.91999954	145.54890000
74.95999954	149.14400000
74.99999954	150.94450000
75.03999954	143.75440000
75.07999954	136.56420000
75.11999954	129.38020000
75.15999954	118.59490000
75.19999954	111.41090000
75.23999954	102.42620000
75.27999954	98.83114000
75.31999954	89.84650000
75.35999954	84.45692000
75.39999954	77.26676000
75.43999954	71.87719000
75.47999954	62.89254000
75.51999954	55.70238000
75.55999954	46.71774000
75.59999954	35.93859000
75.63999954	25.15336000
75.67999954	14.37422000
75.71999954	1.79448800
75.75999954	-8.98464900
75.79999954	-21.55827000
75.83999954	-32.34352000
75.87999954	-41.32816000
75.91999954	-52.10730000
75.95999954	-61.09195000
75.99999954	-70.07660000
76.03999954	-77.26676000
76.07999954	-84.45692000
76.11999954	-91.64098000
76.15999954	-97.03055000
76.19999954	-104.22070000
76.23999954	-109.61030000
76.27999954	-115.00600000
76.31999954	-118.59490000
76.35999954	-120.39550000
76.39999954	-122.19000000
76.43999954	-118.59490000
76.47999954	-116.80040000
76.51999953	-113.20540000
76.55999953	-107.81580000
76.59999953	-102.42620000
76.63999953	-97.03055000
76.67999953	-89.84650000
76.71999953	-80.86184000
76.75999953	-73.67168000
76.79999953	-66.48762000
76.83999953	-57.50298000
76.87999953	-50.31281000
76.91999953	-39.52757000
76.95999953	-30.54292000
76.99999953	-19.76379000
77.03999953	-8.98464900
77.07999953	0.00000000
77.11999953	12.57363000
77.15999953	21.55827000
77.19999953	32.34352000
77.23999953	43.12265000
77.27999953	53.90789000
77.31999953	62.89254000
77.35999953	73.67168000
77.39999953	82.65633000
77.43999953	93.44157000
77.47999953	104.22070000
77.51999953	115.00600000
77.55999953	125.78510000
77.59999953	131.17470000
77.63999953	136.56420000
77.67999953	140.15930000
77.71999953	138.36480000
77.75999953	132.97520000
77.79999953	127.57960000
77.83999953	120.39550000
77.87999953	111.41090000
77.91999953	97.03055000
77.95999953	91.64098000
77.99999953	84.45692000
78.03999953	75.47227000
78.07999953	62.89254000
78.11999953	50.31281000
78.15999952	41.32816000
78.19999952	28.74844000
78.23999952	19.76379000
78.27999952	8.98464900
78.31999952	0.00000000
78.35999952	-10.77914000
78.39999952	-21.55827000
78.43999952	-32.34352000
78.47999952	-41.32816000
78.51999952	-52.10730000
78.55999952	-61.09195000
78.59999952	-68.28211000
78.63999952	-77.26676000
78.67999952	-82.65633000
78.71999952	-89.84650000
78.75999952	-97.03055000
78.79999952	-102.42620000
78.83999952	-107.81580000
78.87999952	-109.61030000
78.91999952	-115.00600000
78.95999952	-107.81580000
78.99999952	-104.22070000
79.03999952	-98.83114000
79.07999952	-97.03055000
79.11999952	-91.64098000
79.15999952	-89.84650000
79.19999952	-88.04590000
79.23999952	-86.25141000
79.27999952	-82.65633000
79.31999952	-80.86184000
79.35999952	-79.06125000
79.39999952	-75.47227000
79.43999952	-71.87719000
79.47999952	-66.48762000
79.51999952	-59.29746000
79.55999952	-53.90789000
79.59999952	-43.12265000
79.63999952	-30.54292000
79.67999952	-17.96930000
79.71999952	-3.58897700
79.75999952	12.57363000
79.79999952	28.74844000
79.83999951	48.51222000
79.87999951	64.68703000
79.91999951	80.86184000
79.95999951	95.23605000
79.99999951	111.41090000
80.03999951	125.78510000
80.07999951	136.56420000
80.11999951	145.54890000
80.15999951	150.94450000
80.19999951	150.94450000
80.23999951	147.34950000
80.27999951	138.36480000
80.31999951	129.38020000
80.35999951	120.39550000
80.39999951	111.41090000
80.43999951	104.22070000
80.47999951	98.83114000
80.51999951	91.64098000
80.55999951	86.25141000
80.59999951	79.06125000
80.63999951	71.87719000
80.67999951	64.68703000
80.71999951	57.50298000
80.75999951	48.51222000
80.79999951	37.73308000
80.83999951	26.95395000
80.87999951	16.16870000
80.91999951	3.58897700
80.95999951	-7.18405700
80.99999951	-19.76379000
81.03999951	-30.54292000
81.07999951	-39.52757000
81.11999951	-50.31281000
81.15999951	-59.29746000
81.19999951	-68.28211000
81.23999951	-75.47227000
81.27999951	-82.65633000
81.31999951	-89.84650000
81.35999951	-97.03055000
81.39999951	-102.42620000
81.43999951	-109.61030000
81.47999950	-115.00600000
81.51999950	-113.20540000
81.55999950	-115.00600000
81.59999950	-106.01520000
81.63999950	-100.62560000
81.67999950	-89.84650000
81.71999950	-86.25141000
81.75999950	-80.86184000
81.79999950	-77.26676000
81.83999950	-73.67168000
81.87999950	-73.67168000
81.91999950	-70.07660000
81.95999950	-68.28211000
81.99999950	-66.48762000
82.03999950	-64.68703000
82.07999950	-59.29746000
82.11999950	-57.50298000
82.15999950	-50.31281000
82.19999950	-41.32816000
82.23999950	-28.74844000
82.27999950	-14.37422000
82.31999950	0.00000000
82.35999950	17.96930000
82.39999950	35.93859000
82.43999950	52.10730000
82.47999950	70.07660000
82.51999950	86.25141000
82.55999950	100.62560000
82.59999950	115.00600000
82.63999950	129.38020000
82.67999950	138.36480000
82.71999950	145.54890000
82.75999950	149.14400000
82.79999950	149.14400000
82.83999950	145.54890000
82.87999950	127.57960000
82.91999950	125.78510000
82.95999950	123.99060000
82.99999950	116.80040000
83.03999950	102.42620000
83.07999950	95.23605000
83.11999949	89.84650000
83.15999949	88.04590000
83.19999949	79.06125000
83.23999949	70.07660000
83.27999949	62.89254000
83.31999949	55.70238000
83.35999949	44.92325000
83.39999949	34.13800000
83.43999949	25.15336000
83.47999949	12.57363000
83.51999949	0.00000000
83.55999949	-10.77914000
83.59999949	-21.55827000
83.63999949	-32.34352000
83.67999949	-43.12265000
83.71999949	-50.31281000
83.75999949	-61.09195000
83.79999949	-70.07660000
83.83999949	-77.26676000
83.87999949	-84.45692000
83.91999949	-91.64098000
83.95999949	-98.83114000
83.99999949	-104.22070000
84.03999949	-109.61030000
84.07999949	-113.20540000
84.11999949	-115.00600000
84.15999949	-116.80040000
84.19999949	-116.80040000
84.23999949	-116.80040000
84.27999949	-113.20540000
84.31999949	-109.61030000
84.35999949	-104.22070000
84.39999949	-100.62560000
84.43999949	-93.44157000
84.47999949	-86.25141000
84.51999949	-79.06125000
84.55999949	-71.87719000
84.59999949	-64.68703000
84.63999949	-53.90789000
84.67999949	-44.92325000
84.71999949	-35.93859000
84.75999948	-26.95395000
84.79999948	-16.16870000
84.83999948	-5.38956800
84.87999948	3.58897700
84.91999948	14.37422000
84.95999948	25.15336000
84.99999948	35.93859000
85.03999948	46.71774000
85.07999948	57.50298000
85.11999948	64.68703000
85.15999948	75.47227000
85.19999948	86.25141000
85.23999948	98.83114000
85.27999948	107.81580000
85.31999948	116.80040000
85.35999948	127.57960000
85.39999948	134.76970000
85.43999948	138.36480000
85.47999948	140.15930000
85.51999948	138.36480000
85.55999948	132.97520000
85.59999948	127.57960000
85.63999948	118.59490000
85.67999948	109.61030000
85.71999948	100.62560000
85.75999948	91.64098000
85.79999948	80.86184000
85.83999948	70.07660000
85.87999948	59.29746000
85.91999948	48.51222000
85.95999948	37.73308000
85.99999948	26.95395000
86.03999948	16.16870000
86.07999948	5.38956800
86.11999948	-3.58897700
86.15999948	-14.37422000
86.19999948	-23.35887000
86.23999948	-34.13800000
86.27999948	-43.12265000
86.31999948	-52.10730000
86.35999948	-61.09195000
86.39999947	-68.28211000
86.43999947	-77.26676000
86.47999947	-84.45692000
86.51999947	-89.84650000
86.55999947	-97.03055000
86.59999947	-102.42620000
86.63999947	-106.01520000
86.67999947	-109.61030000
86.71999947	-107.81580000
86.75999947	-107.81580000
86.79999947	-102.42620000
86.83999947	-100.62560000
86.87999947	-97.03055000
86.91999947	-93.44157000
86.95999947	-91.64098000
86.99999947	-88.04590000
87.03999947	-86.25141000
87.07999947	-82.65633000
87.11999947	-79.06125000
87.15999947	-75.47227000
87.19999947	-71.87719000
87.23999947	-68.28211000
87.27999947	-62.89254000
87.31999947	-55.70238000
87.35999947	-48.51222000
87.39999947	-39.52757000
87.43999947	-26.95395000
87.47999947	-14.37422000
87.51999947	1.79448800
87.55999947	17.96930000
87.59999947	35.93859000
87.63999947	52.10730000
87.67999947	70.07660000
87.71999947	84.45692000
87.75999947	93.44157000
87.79999947	111.41090000
87.83999947	127.57960000
87.87999947	138.36480000
87.91999947	143.75440000
87.95999947	147.34950000
87.99999947	147.34950000
88.03999946	143.75440000
88.07999946	136.56420000
88.11999946	129.38020000
88.15999946	120.39550000
88.19999946	113.20540000
88.23999946	104.22070000
88.27999946	98.83114000
88.31999946	91.64098000
88.35999946	84.45692000
88.39999946	77.26676000
88.43999946	70.07660000
88.47999946	62.89254000
88.51999946	53.90789000
88.55999946	44.92325000
88.59999946	34.13800000
88.63999946	23.35887000
88.67999946	12.57363000
88.71999946	1.79448800
88.75999946	-8.98464900
88.79999946	-21.55827000
88.83999946	-30.54292000
88.87999946	-41.32816000
88.91999946	-50.31281000
88.95999946	-57.50298000
88.99999946	-66.48762000
89.03999946	-73.67168000
89.07999946	-82.65633000
89.11999946	-89.84650000
89.15999946	-97.03055000
89.19999946	-106.01520000
89.23999946	-109.61030000
89.27999946	-115.00600000
89.31999946	-115.00600000
89.35999946	-118.59490000
89.39999946	-111.41090000
89.43999946	-104.22070000
89.47999946	-97.03055000
89.51999946	-93.44157000
89.55999946	-88.04590000
89.59999946	-82.65633000
89.63999946	-79.06125000
89.67999945	-75.47227000
89.71999945	-71.87719000
89.75999945	-70.07660000
89.79999945	-64.68703000
89.83999945	-61.09195000
89.87999945	-57.50298000
89.91999945	-50.31281000
89.95999945	-44.92325000
89.99999945	-34.13800000
90.03999945	-21.55827000
90.07999945	-7.18405700
90.11999945	7.18405700
90.15999945	23.35887000
90.19999945	39.52757000
90.23999945	55.70238000
90.27999945	70.07660000
90.31999945	84.45692000
90.35999945	97.03055000
90.39999945	109.61030000
90.43999945	120.39550000
90.47999945	131.17470000
90.51999945	138.36480000
90.55999945	143.75440000
90.59999945	143.75440000
90.63999945	141.95990000
90.67999945	136.56420000
90.71999945	129.38020000
90.75999945	122.19000000
90.79999945	115.00600000
90.83999945	107.81580000
90.87999945	100.62560000
90.91999945	93.44157000
90.95999945	86.25141000
90.99999945	79.06125000
91.03999945	70.07660000
91.07999945	61.09195000
91.11999945	53.90789000
91.15999945	43.12265000
91.19999945	32.34352000
91.23999945	23.35887000
91.27999945	12.57363000
91.31999945	0.00000000
91.35999944	-10.77914000
91.39999944	-21.55827000
91.43999944	-32.34352000
91.47999944	-43.12265000
91.51999944	-52.10730000
91.55999944	-61.09195000
91.59999944	-71.87719000
91.63999944	-79.06125000
91.67999944	-86.25141000
91.71999944	-93.44157000
91.75999944	-100.62560000
91.79999944	-104.22070000
91.83999944	-109.61030000
91.87999944	-115.00600000
91.91999944	-116.80040000
91.95999944	-115.00600000
91.99999944	-115.00600000
92.03999944	-107.81580000
92.07999944	-100.62560000
92.11999944	-91.64098000
92.15999944	-88.04590000
92.19999944	-82.65633000
92.23999944	-79.06125000
92.27999944	-73.67168000
92.31999944	-71.87719000
92.35999944	-66.48762000
92.39999944	-62.89254000
92.43999944	-59.29746000
92.47999944	-55.70238000
92.51999944	-50.31281000
92.55999944	-43.12265000
92.59999944	-35.93859000
92.63999944	-21.55827000
92.67999944	-8.98464900
92.71999944	-3.58897700
92.75999944	19.76379000
92.79999944	44.92325000
92.83999944	55.70238000
92.87999944	68.28211000
92.91999944	79.06125000
92.95999944	98.83114000
92.99999943	113.20540000
93.03999943	122.19000000
93.07999943	131.17470000
93.11999943	141.95990000
93.15999943	145.54890000
93.19999943	143.75440000
93.23999943	141.95990000
93.27999943	136.56420000
93.31999943	127.57960000
93.35999943	120.39550000
93.39999943	113.20540000
93.43999943	106.01520000
93.47999943	97.03055000
93.51999943	89.84650000
93.55999943	82.65633000
93.59999943	75.47227000
93.63999943	68.28211000
93.67999943	59.29746000
93.71999943	52.10730000
93.75999943	43.12265000
93.79999943	32.34352000
93.83999943	21.55827000
93.87999943	10.77914000
93.91999943	0.00000000
93.95999943	-10.77914000
93.99999943	-23.35887000
94.03999943	-32.34352000
94.07999943	-43.12265000
94.11999943	-53.90789000
94.15999943	-61.09195000
94.19999943	-70.07660000
94.23999943	-79.06125000
94.27999943	-86.25141000
94.31999943	-93.44157000
94.35999943	-100.62560000
94.39999943	-107.81580000
94.43999943	-113.20540000
94.47999943	-116.80040000
94.51999943	-115.00600000
94.55999943	-118.59490000
94.59999943	-107.81580000
94.63999942	-102.42620000
94.67999942	-91.64098000
94.71999942	-88.04590000
94.75999942	-80.86184000
94.79999942	-79.06125000
94.83999942	-73.67168000
94.87999942	-71.87719000
94.91999942	-70.07660000
94.95999942	-66.48762000
94.99999942	-64.68703000
95.03999942	-64.68703000
95.07999942	-61.09195000
95.11999942	-59.29746000
95.15999942	-52.10730000
95.19999942	-44.92325000
95.23999942	-30.54292000
95.27999942	-14.37422000
95.31999942	1.79448800
95.35999942	19.76379000
95.39999942	39.52757000
95.43999942	57.50298000
95.47999942	75.47227000
95.51999942	89.84650000
95.55999942	106.01520000
95.59999942	120.39550000
95.63999942	131.17470000
95.67999942	140.15930000
95.71999942	147.34950000
95.75999942	149.14400000
95.79999942	147.34950000
95.83999942	140.15930000
95.87999942	132.97520000
95.91999942	125.78510000
95.95999942	115.00600000
95.99999942	107.81580000
96.03999942	102.42620000
96.07999942	95.23605000
96.11999942	89.84650000
96.15999942	82.65633000
96.19999942	75.47227000
96.23999942	68.28211000
96.27999941	59.29746000
96.31999941	50.31281000
96.35999941	41.32816000
96.39999941	30.54292000
96.43999941	21.55827000
96.47999941	8.98464900
96.51999941	-1.79448800
96.55999941	-14.37422000
96.59999941	-25.15336000
96.63999941	-35.93859000
96.67999941	-44.92325000
96.71999941	-55.70238000
96.75999941	-64.68703000
96.79999941	-71.87719000
96.83999941	-80.86184000
96.87999941	-88.04590000
96.91999941	-95.23605000
96.95999941	-102.42620000
96.99999941	-109.61030000
97.03999941	-115.00600000
97.07999941	-115.00600000
97.11999941	-116.80040000
97.15999941	-109.61030000
97.19999941	-102.42620000
97.23999941	-93.44157000
97.27999941	-89.84650000
97.31999941	-84.45692000
97.35999941	-80.86184000
97.39999941	-77.26676000
97.43999941	-75.47227000
97.47999941	-73.67168000
97.51999941	-70.07660000
97.55999941	-70.07660000
97.59999941	-71.87719000
97.63999941	-64.68703000
97.67999941	-57.50298000
97.71999941	-50.31281000
97.75999941	-44.92325000
97.79999941	-34.13800000
97.83999941	-21.55827000
97.87999941	-7.18405700
97.91999940	8.98464900
97.95999940	26.95395000
97.99999940	44.92325000
98.03999940	61.09195000
98.07999940	77.26676000
98.11999940	91.64098000
98.15999940	107.81580000
98.19999940	120.39550000
98.23999940	132.97520000
98.27999940	143.75440000
98.31999940	149.14400000
98.35999940	149.14400000
98.39999940	147.34950000
98.43999940	140.15930000
98.47999940	132.97520000
98.51999940	122.19000000
98.55999940	115.00600000
98.59999940	107.81580000
98.63999940	102.42620000
98.67999940	98.83114000
98.71999940	100.62560000
98.75999940	100.62560000
98.79999940	100.62560000
98.83999940	91.64098000
98.87999940	75.47227000
98.91999940	53.90789000
98.95999940	30.54292000
98.99999940	5.38956800
99.03999940	-19.76379000
99.07999940	-39.52757000
99.11999940	-46.71774000
99.15999940	-46.71774000
99.19999940	-43.12265000
99.23999940	-43.12265000
99.27999940	-44.92325000
99.31999940	-46.71774000
99.35999940	-50.31281000
99.39999940	-57.50298000
99.43999940	-68.28211000
99.47999940	-79.06125000
99.51999940	-86.25141000
99.55999939	-89.84650000
99.59999939	-97.03055000
99.63999939	-102.42620000
99.67999939	-107.81580000
99.71999939	-109.61030000
99.75999939	-109.61030000
99.79999939	-109.61030000
99.83999939	-109.61030000
99.87999939	-109.61030000
99.91999939	-107.81580000
99.95999939	-107.81580000
99.99999939	-106.01520000
100.03999939	-102.42620000
100.07999939	-100.62560000
100.11999939	-91.64098000
100.15999939	-80.86184000
100.19999939	-68.28211000
100.23999939	-55.70238000
100.27999939	-41.32816000
100.31999939	-26.95395000
100.35999939	-12.57363000
100.39999939	-1.79448800
100.43999939	7.18405700
100.47999939	16.16870000
100.51999939	25.15336000
100.55999939	32.34352000
100.59999939	41.32816000
100.63999939	50.31281000
100.67999939	61.09195000
100.71999939	73.67168000
100.75999939	84.45692000
100.79999939	93.44157000
100.83999939	104.22070000
100.87999939	113.20540000
100.91999939	118.59490000
100.95999939	123.99060000
100.99999939	129.38020000
101.03999939	129.38020000
101.07999939	129.38020000
101.11999939	127.57960000
101.15999939	122.19000000
101.19999938	118.59490000
101.23999938	115.00600000
101.27999938	107.81580000
101.31999938	100.62560000
101.35999938	91.64098000
101.39999938	82.65633000
101.43999938	70.07660000
101.47999938	59.29746000
101.51999938	48.51222000
101.55999938	37.73308000
101.59999938	25.15336000
101.63999938	14.37422000
101.67999938	1.79448800
101.71999938	-8.98464900
101.75999938	-21.55827000
101.79999938	-32.34352000
101.83999938	-41.32816000
101.87999938	-52.10730000
101.91999938	-61.09195000
101.95999938	-70.07660000
101.99999938	-79.06125000
102.03999938	-86.25141000
102.07999938	-93.44157000
102.11999938	-98.83114000
102.15999938	-102.42620000
102.19999938	-106.01520000
102.23999938	-107.81580000
102.27999938	-111.41090000
102.31999938	-115.00600000
102.35999938	-116.80040000
102.39999938	-116.80040000
102.43999938	-116.80040000
102.47999938	-115.00600000
102.51999938	-102.42620000
102.55999938	-107.81580000
102.59999938	-95.23605000
102.63999938	-82.65633000
102.67999938	-73.67168000
102.71999938	-77.26676000
102.75999938	-71.87719000
102.79999938	-64.68703000
102.83999937	-57.50298000
102.87999937	-53.90789000
102.91999937	-50.31281000
102.95999937	-43.12265000
102.99999937	-34.13800000
103.03999937	-26.95395000
103.07999937	-14.37422000
103.11999937	1.79448800
103.15999937	16.16870000
103.19999937	32.34352000
103.23999937	50.31281000
103.27999937	68.28211000
103.31999937	82.65633000
103.35999937	97.03055000
103.39999937	111.41090000
103.43999937	123.99060000
103.47999937	134.76970000
103.51999937	141.95990000
103.55999937	147.34950000
103.59999937	145.54890000
103.63999937	141.95990000
103.67999937	134.76970000
103.71999937	127.57960000
103.75999937	118.59490000
103.79999937	109.61030000
103.83999937	102.42620000
103.87999937	95.23605000
103.91999937	89.84650000
103.95999937	79.06125000
103.99999937	71.87719000
104.03999937	64.68703000
104.07999937	57.50298000
104.11999937	48.51222000
104.15999937	37.73308000
104.19999937	28.74844000
104.23999937	17.96930000
104.27999937	7.18405700
104.31999937	-3.58897700
104.35999937	-14.37422000
104.39999937	-25.15336000
104.43999937	-35.93859000
104.47999937	-44.92325000
104.51999936	-55.70238000
104.55999936	-64.68703000
104.59999936	-73.67168000
104.63999936	-80.86184000
104.67999936	-88.04590000
104.71999936	-95.23605000
104.75999936	-102.42620000
104.79999936	-111.41090000
104.83999936	-116.80040000
104.87999936	-122.19000000
104.91999936	-125.78510000
104.95999936	-127.57960000
104.99999936	-125.78510000
105.03999936	-125.78510000
105.07999936	-122.19000000
105.11999936	-115.00600000
105.15999936	-111.41090000
105.19999936	-95.23605000
105.23999936	-86.25141000
105.27999936	-71.87719000
105.31999936	-66.48762000
105.35999936	-57.50298000
105.39999936	-53.90789000
105.43999936	-48.51222000
105.47999936	-44.92325000
105.51999936	-41.32816000
105.55999936	-35.93859000
105.59999936	-30.54292000
105.63999936	-25.15336000
105.67999936	-14.37422000
105.71999936	-5.38956800
105.75999936	5.38956800
105.79999936	19.76379000
105.83999936	35.93859000
105.87999936	50.31281000
105.91999936	66.48762000
105.95999936	82.65633000
105.99999936	98.83114000
106.03999936	111.41090000
106.07999936	125.78510000
106.11999936	136.56420000
106.15999935	145.54890000
106.19999935	150.94450000
106.23999935	149.14400000
106.27999935	143.75440000
106.31999935	134.76970000
106.35999935	125.78510000
106.39999935	116.80040000
106.43999935	107.81580000
106.47999935	98.83114000
106.51999935	91.64098000
106.55999935	80.86184000
106.59999935	71.87719000
106.63999935	62.89254000
106.67999935	52.10730000
106.71999935	43.12265000
106.75999935	34.13800000
106.79999935	25.15336000
106.83999935	14.37422000
106.87999935	5.38956800
106.91999935	-5.38956800
106.95999935	-16.16870000
106.99999935	-25.15336000
107.03999935	-35.93859000
107.07999935	-44.92325000
107.11999935	-52.10730000
107.15999935	-61.09195000
107.19999935	-70.07660000
107.23999935	-79.06125000
107.27999935	-86.25141000
107.31999935	-91.64098000
107.35999935	-100.62560000
107.39999935	-107.81580000
107.43999935	-116.80040000
107.47999935	-118.59490000
107.51999935	-122.19000000
107.55999935	-113.20540000
107.59999935	-111.41090000
107.63999935	-102.42620000
107.67999935	-100.62560000
107.71999935	-91.64098000
107.75999935	-88.04590000
107.79999934	-84.45692000
107.83999934	-80.86184000
107.87999934	-79.06125000
107.91999934	-75.47227000
107.95999934	-73.67168000
107.99999934	-71.87719000
108.03999934	-68.28211000
108.07999934	-64.68703000
108.11999934	-59.29746000
108.15999934	-52.10730000
108.19999934	-41.32816000
108.23999934	-28.74844000
108.27999934	-14.37422000
108.31999934	0.00000000
108.35999934	17.96930000
108.39999934	35.93859000
108.43999934	53.90789000
108.47999934	71.87719000
108.51999934	86.25141000
108.55999934	102.42620000
108.59999934	116.80040000
108.63999934	129.38020000
108.67999934	140.15930000
108.71999934	147.34950000
108.75999934	150.94450000
108.79999934	149.14400000
108.83999934	143.75440000
108.87999934	132.97520000
108.91999934	125.78510000
108.95999934	116.80040000
108.99999934	107.81580000
109.03999934	100.62560000
109.07999934	93.44157000
109.11999934	88.04590000
109.15999934	80.86184000
109.19999934	73.67168000
109.23999934	68.28211000
109.27999934	59.29746000
109.31999934	50.31281000
109.35999934	41.32816000
109.39999934	30.54292000
109.43999933	19.76379000
109.47999933	7.18405700
109.51999933	-3.58897700
109.55999933	-14.37422000
109.59999933	-26.95395000
109.63999933	-35.93859000
109.67999933	-46.71774000
109.71999933	-55.70238000
109.75999933	-64.68703000
109.79999933	-71.87719000
109.83999933	-79.06125000
109.87999933	-86.25141000
109.91999933	-93.44157000
109.95999933	-100.62560000
109.99999933	-106.01520000
110.03999933	-111.41090000
110.07999933	-115.00600000
110.11999933	-116.80040000
110.15999933	-118.59490000
110.19999933	-118.59490000
110.23999933	-115.00600000
110.27999933	-111.41090000
110.31999933	-100.62560000
110.35999933	-93.44157000
110.39999933	-80.86184000
110.43999933	-77.26676000
110.47999933	-70.07660000
110.51999933	-66.48762000
110.55999933	-61.09195000
110.59999933	-59.29746000
110.63999933	-57.50298000
110.67999933	-53.90789000
110.71999933	-46.71774000
110.75999933	-41.32816000
110.79999933	-32.34352000
110.83999933	-21.55827000
110.87999933	-8.98464900
110.91999933	3.58897700
110.95999933	19.76379000
110.99999933	35.93859000
111.03999933	52.10730000
111.07999932	68.28211000
111.11999932	82.65633000
111.15999932	95.23605000
111.19999932	107.81580000
111.23999932	116.80040000
111.27999932	129.38020000
111.31999932	136.56420000
111.35999932	141.95990000
111.39999932	143.75440000
111.43999932	141.95990000
111.47999932	136.56420000
111.51999932	129.38020000
111.55999932	122.19000000
111.59999932	115.00600000
111.63999932	107.81580000
111.67999932	98.83114000
111.71999932	89.84650000
111.75999932	82.65633000
111.79999932	71.87719000
111.83999932	62.89254000
111.87999932	52.10730000
111.91999932	43.12265000
111.95999932	34.13800000
111.99999932	23.35887000
112.03999932	14.37422000
112.07999932	5.38956800
112.11999932	-3.58897700
112.15999932	-14.37422000
112.19999932	-23.35887000
112.23999932	-34.13800000
112.27999932	-43.12265000
112.31999932	-52.10730000
112.35999932	-59.29746000
112.39999932	-79.06125000
112.43999932	-82.65633000
112.47999932	-82.65633000
112.51999932	-89.84650000
112.55999932	-102.42620000
112.59999932	-109.61030000
112.63999932	-109.61030000
112.67999932	-107.81580000
112.71999931	-109.61030000
112.75999931	-109.61030000
112.79999931	-107.81580000
112.83999931	-104.22070000
112.87999931	-106.01520000
112.91999931	-102.42620000
112.95999931	-98.83114000
112.99999931	-97.03055000
113.03999931	-95.23605000
113.07999931	-89.84650000
113.11999931	-84.45692000
113.15999931	-79.06125000
113.19999931	-71.87719000
113.23999931	-64.68703000
113.27999931	-55.70238000
113.31999931	-44.92325000
113.35999931	-34.13800000
113.39999931	-21.55827000
113.43999931	-7.18405700
113.47999931	5.38956800
113.51999931	19.76379000
113.55999931	34.13800000
113.59999931	46.71774000
113.63999931	59.29746000
113.67999931	71.87719000
113.71999931	82.65633000
113.75999931	91.64098000
113.79999931	102.42620000
113.83999931	113.20540000
113.87999931	122.19000000
113.91999931	131.17470000
113.95999931	136.56420000
113.99999931	140.15930000
114.03999931	140.15930000
114.07999931	136.56420000
114.11999931	129.38020000
114.15999931	122.19000000
114.19999931	115.00600000
114.23999931	109.61030000
114.27999931	100.62560000
114.31999931	93.44157000
114.35999930	86.25141000
114.39999930	77.26676000
114.43999930	68.28211000
114.47999930	59.29746000
114.51999930	50.31281000
114.55999930	41.32816000
114.59999930	30.54292000
114.63999930	21.55827000
114.67999930	10.77914000
114.71999930	-1.79448800
114.75999930	-10.77914000
114.79999930	-23.35887000
114.83999930	-34.13800000
114.87999930	-44.92325000
114.91999930	-55.70238000
114.95999930	-64.68703000
114.99999930	-71.87719000
115.03999930	-80.86184000
115.07999930	-88.04590000
115.11999930	-93.44157000
115.15999930	-100.62560000
115.19999930	-106.01520000
115.23999930	-111.41090000
115.27999930	-115.00600000
115.31999930	-116.80040000
115.35999930	-120.39550000
115.39999930	-116.80040000
115.43999930	-116.80040000
115.47999930	-102.42620000
115.51999930	-97.03055000
115.55999930	-82.65633000
115.59999930	-79.06125000
115.63999930	-71.87719000
115.67999930	-68.28211000
115.71999930	-64.68703000
115.75999930	-62.89254000
115.79999930	-59.29746000
115.83999930	-57.50298000
115.87999930	-55.70238000
115.91999930	-50.31281000
115.95999930	-48.51222000
115.99999930	-39.52757000
116.03999929	-28.74844000
116.07999929	-17.96930000
116.11999929	0.00000000
116.15999929	16.16870000
116.19999929	35.93859000
116.23999929	52.10730000
116.27999929	71.87719000
116.31999929	86.25141000
116.35999929	102.42620000
116.39999929	115.00600000
116.43999929	129.38020000
116.47999929	138.36480000
116.51999929	145.54890000
116.55999929	149.14400000
116.59999929	145.54890000
116.63999929	140.15930000
116.67999929	132.97520000
116.71999929	125.78510000
116.75999929	118.59490000
116.79999929	111.41090000
116.83999929	102.42620000
116.87999929	95.23605000
116.91999929	88.04590000
116.95999929	80.86184000
116.99999929	75.47227000
117.03999929	66.48762000
117.07999929	59.29746000
117.11999929	50.31281000
117.15999929	41.32816000
117.19999929	30.54292000
117.23999929	19.76379000
117.27999929	3.58897700
117.31999929	-5.38956800
117.35999929	-14.37422000
117.39999929	-21.55827000
117.43999929	-34.13800000
117.47999929	-44.92325000
117.51999929	-55.70238000
117.55999929	-62.89254000
117.59999929	-70.07660000
117.63999929	-79.06125000
117.67999928	-86.25141000
117.71999928	-93.44157000
117.75999928	-100.62560000
117.79999928	-107.81580000
117.83999928	-113.20540000
117.87999928	-116.80040000
117.91999928	-116.80040000
117.95999928	-120.39550000
117.99999928	-111.41090000
118.03999928	-107.81580000
118.07999928	-98.83114000
118.11999928	-95.23605000
118.15999928	-89.84650000
118.19999928	-84.45692000
118.23999928	-80.86184000
118.27999928	-79.06125000
118.31999928	-73.67168000
118.35999928	-71.87719000
118.39999928	-68.28211000
118.43999928	-64.68703000
118.47999928	-59.29746000
118.51999928	-52.10730000
118.55999928	-44.92325000
118.59999928	-35.93859000
118.63999928	-23.35887000
118.67999928	-7.18405700
118.71999928	7.18405700
118.75999928	25.15336000
118.79999928	39.52757000
118.83999928	57.50298000
118.87999928	71.87719000
118.91999928	86.25141000
118.95999928	98.83114000
118.99999928	109.61030000
119.03999928	122.19000000
119.07999928	132.97520000
119.11999928	140.15930000
119.15999928	147.34950000
119.19999928	145.54890000
119.23999928	143.75440000
119.27999928	134.76970000
119.31999927	129.38020000
119.35999927	120.39550000
119.39999927	111.41090000
119.43999927	104.22070000
119.47999927	97.03055000
119.51999927	89.84650000
119.55999927	82.65633000
119.59999927	73.67168000
119.63999927	66.48762000
119.67999927	57.50298000
119.71999927	50.31281000
119.75999927	41.32816000
119.79999927	32.34352000
119.83999927	21.55827000
119.87999927	10.77914000
119.91999927	-1.79448800
119.95999927	-12.57363000
119.99999927	-23.35887000
120.03999927	-35.93859000
120.07999927	-44.92325000
120.11999927	-53.90789000
120.15999927	-66.48762000
120.19999927	-73.67168000
120.23999927	-80.86184000
120.27999927	-91.64098000
120.31999927	-97.03055000
120.35999927	-102.42620000
120.39999927	-109.61030000
120.43999927	-109.61030000
120.47999927	-116.80040000
120.51999927	-111.41090000
120.55999927	-107.81580000
120.59999927	-102.42620000
120.63999927	-100.62560000
120.67999927	-95.23605000
120.71999927	-91.64098000
120.75999927	-88.04590000
120.79999927	-86.25141000
120.83999927	-84.45692000
120.87999927	-80.86184000
120.91999927	-79.06125000
120.95999926	-75.47227000
120.99999926	-71.87719000
121.03999926	-66.48762000
121.07999926	-59.29746000
121.11999926	-53.90789000
121.15999926	-43.12265000
121.19999926	-30.54292000
121.23999926	-23.35887000
121.27999926	-30.54292000
121.31999926	-17.96930000
121.35999926	12.57363000
121.39999926	43.12265000
121.43999926	62.89254000
121.47999926	88.04590000
121.51999926	122.19000000
121.55999926	150.94450000
121.59999926	170.70830000
121.63999926	165.31880000
121.67999926	152.73900000
121.71999926	149.14400000
121.75999926	149.14400000
121.79999926	138.36480000
121.83999926	120.39550000
121.87999926	107.81580000
121.91999926	106.01520000
121.95999926	107.81580000
121.99999926	102.42620000
122.03999926	89.84650000
122.07999926	82.65633000
122.11999926	79.06125000
122.15999926	77.26676000
122.19999926	73.67168000
122.23999926	52.10730000
122.27999926	46.71774000
122.31999926	50.31281000
122.35999926	44.92325000
122.39999926	28.74844000
122.43999926	21.55827000
122.47999926	14.37422000
122.51999926	10.77914000
122.55999926	1.79448800
122.59999925	-7.18405700
122.63999925	-19.76379000
122.67999925	-34.13800000
122.71999925	-50.31281000
122.75999925	-62.89254000
122.79999925	-77.26676000
122.83999925	-93.44157000
122.87999925	-104.22070000
122.91999925	-109.61030000
122.95999925	-109.61030000
122.99999925	-109.61030000
123.03999925	-109.61030000
123.07999925	-107.81580000
123.11999925	-102.42620000
123.15999925	-100.62560000
123.19999925	-98.83114000
123.23999925	-95.23605000
123.27999925	-93.44157000
123.31999925	-89.84650000
123.35999925	-86.25141000
123.39999925	-79.06125000
123.43999925	-73.67168000
123.47999925	-71.87719000
123.51999925	-66.48762000
123.55999925	-61.09195000
123.59999925	-57.50298000
123.63999925	-57.50298000
123.67999925	-53.90789000
123.71999925	-48.51222000
123.75999925	-41.32816000
123.79999925	-32.34352000
123.83999925	-21.55827000
123.87999925	-3.58897700
123.91999925	12.57363000
123.95999925	30.54292000
123.99999925	48.51222000
124.03999925	64.68703000
124.07999925	80.86184000
124.11999925	95.23605000
124.15999925	111.41090000
124.19999925	123.99060000
124.23999924	134.76970000
124.27999924	143.75440000
124.31999924	149.14400000
124.35999924	149.14400000
124.39999924	143.75440000
124.43999924	138.36480000
124.47999924	131.17470000
124.51999924	123.99060000
124.55999924	118.59490000
124.59999924	111.41090000
124.63999924	104.22070000
124.67999924	98.83114000
124.71999924	89.84650000
124.75999924	82.65633000
124.79999924	75.47227000
124.83999924	66.48762000
124.87999924	59.29746000
124.91999924	50.31281000
124.95999924	41.32816000
124.99999924	32.34352000
125.03999924	21.55827000
125.07999924	10.77914000
125.11999924	-1.79448800
125.15999924	-14.37422000
125.19999924	-25.15336000
125.23999924	-37.73308000
125.27999924	-48.51222000
125.31999924	-59.29746000
125.35999924	-68.28211000
125.39999924	-75.47227000
125.43999924	-82.65633000
125.47999924	-88.04590000
125.51999924	-95.23605000
125.55999924	-100.62560000
125.59999924	-106.01520000
125.63999924	-109.61030000
125.67999924	-113.20540000
125.71999924	-115.00600000
125.75999924	-115.00600000
125.79999924	-113.20540000
125.83999924	-111.41090000
125.87999923	-109.61030000
125.91999923	-104.22070000
125.95999923	-98.83114000
125.99999923	-91.64098000
126.03999923	-80.86184000
126.07999923	-71.87719000
126.11999923	-61.09195000
126.15999923	-53.90789000
126.19999923	-48.51222000
126.23999923	-43.12265000
126.27999923	-37.73308000
126.31999923	-30.54292000
126.35999923	-25.15336000
126.39999923	-16.16870000
126.43999923	-7.18405700
126.47999923	1.79448800
126.51999923	14.37422000
126.55999923	25.15336000
126.59999923	35.93859000
126.63999923	48.51222000
126.67999923	62.89254000
126.71999923	75.47227000
126.75999923	89.84650000
126.79999923	100.62560000
126.83999923	115.00600000
126.87999923	127.57960000
126.91999923	136.56420000
126.95999923	143.75440000
126.99999923	147.34950000
127.03999923	143.75440000
127.07999923	140.15930000
127.11999923	125.78510000
127.15999923	120.39550000
127.19999923	115.00600000
127.23999923	109.61030000
127.27999923	98.83114000
127.31999923	91.64098000
127.35999923	82.65633000
127.39999923	73.67168000
127.43999923	64.68703000
127.47999923	57.50298000
127.51999923	46.71774000
127.55999922	35.93859000
127.59999922	26.95395000
127.63999922	16.16870000
127.67999922	3.58897700
127.71999922	-8.98464900
127.75999922	-21.55827000
127.79999922	-30.54292000
127.83999922	-41.32816000
127.87999922	-52.10730000
127.91999922	-59.29746000
127.95999922	-66.48762000
127.99999922	-75.47227000
128.03999922	-82.65633000
128.07999922	-88.04590000
128.11999922	-93.44157000
128.15999922	-97.03055000
128.19999922	-102.42620000
128.23999922	-107.81580000
128.27999922	-111.41090000
128.31999922	-115.00600000
128.35999922	-116.80040000
128.39999922	-116.80040000
128.43999922	-109.61030000
128.47999922	-102.42620000
128.51999922	-93.44157000
128.55999922	-88.04590000
128.59999922	-84.45692000
128.63999922	-77.26676000
128.67999922	-71.87719000
128.71999922	-68.28211000
128.75999922	-66.48762000
128.79999922	-62.89254000
128.83999922	-59.29746000
128.87999922	-55.70238000
128.91999922	-53.90789000
128.95999922	-44.92325000
128.99999922	-39.52757000
129.03999922	-25.15336000
129.07999922	-10.77914000
129.11999922	5.38956800
129.15999922	21.55827000
129.19999921	41.32816000
129.23999921	57.50298000
129.27999921	75.47227000
129.31999921	89.84650000
129.35999921	104.22070000
129.39999921	118.59490000
129.43999921	129.38020000
129.47999921	140.15930000
129.51999921	145.54890000
129.55999921	147.34950000
129.59999921	145.54890000
129.63999921	138.36480000
129.67999921	131.17470000
129.71999921	122.19000000
129.75999921	115.00600000
129.79999921	107.81580000
129.83999921	100.62560000
129.87999921	93.44157000
129.91999921	86.25141000
129.95999921	79.06125000
129.99999921	71.87719000
130.03999921	64.68703000
130.07999921	55.70238000
130.11999921	44.92325000
130.15999921	35.93859000
130.19999921	25.15336000
130.23999921	14.37422000
130.27999921	3.58897700
130.31999921	-7.18405700
130.35999921	-17.96930000
130.39999921	-28.74844000
130.43999921	-39.52757000
130.47999921	-50.31281000
130.51999921	-57.50298000
130.55999921	-66.48762000
130.59999921	-73.67168000
130.63999921	-80.86184000
130.67999921	-89.84650000
130.71999921	-97.03055000
130.75999921	-102.42620000
130.79999921	-107.81580000
130.83999920	-113.20540000
130.87999920	-111.41090000
130.91999920	-111.41090000
130.95999920	-107.81580000
130.99999920	-106.01520000
131.03999920	-102.42620000
131.07999920	-100.62560000
131.11999920	-95.23605000
131.15999920	-93.44157000
131.19999920	-89.84650000
131.23999920	-86.25141000
131.27999920	-82.65633000
131.31999920	-79.06125000
131.35999920	-73.67168000
131.39999920	-68.28211000
131.43999920	-61.09195000
131.47999920	-52.10730000
131.51999920	-43.12265000
131.55999920	-32.34352000
131.59999920	-21.55827000
131.63999920	-8.98464900
131.67999920	7.18405700
131.71999920	21.55827000
131.75999920	35.93859000
131.79999920	50.31281000
131.83999920	64.68703000
131.87999920	77.26676000
131.91999920	86.25141000
131.95999920	98.83114000
131.99999920	111.41090000
132.03999920	122.19000000
132.07999920	118.59490000
132.11999920	134.76970000
132.15999920	147.34950000
132.19999920	145.54890000
132.23999920	136.56420000
132.27999920	131.17470000
132.31999920	127.57960000
132.35999920	122.19000000
132.39999920	111.41090000
132.43999920	104.22070000
132.47999919	98.83114000
132.51999919	91.64098000
132.55999919	80.86184000
132.59999919	73.67168000
132.63999919	64.68703000
132.67999919	55.70238000
132.71999919	46.71774000
132.75999919	35.93859000
132.79999919	26.95395000
132.83999919	16.16870000
132.87999919	3.58897700
132.91999919	-5.38956800
132.95999919	-16.16870000
132.99999919	-28.74844000
133.03999919	-39.52757000
133.07999919	-50.31281000
133.11999919	-57.50298000
133.15999919	-68.28211000
133.19999919	-75.47227000
133.23999919	-82.65633000
133.27999919	-89.84650000
133.31999919	-95.23605000
133.35999919	-102.42620000
133.39999919	-106.01520000
133.43999919	-109.61030000
133.47999919	-107.81580000
133.51999919	-107.81580000
133.55999919	-104.22070000
133.59999919	-102.42620000
133.63999919	-98.83114000
133.67999919	-95.23605000
133.71999919	-95.23605000
133.75999919	-91.64098000
133.79999919	-89.84650000
133.83999919	-86.25141000
133.87999919	-84.45692000
133.91999919	-79.06125000
133.95999919	-79.06125000
133.99999919	-73.67168000
134.03999919	-71.87719000
134.07999919	-61.09195000
134.11999918	-50.31281000
134.15999918	-37.73308000
134.19999918	-23.35887000
134.23999918	-5.38956800
134.27999918	10.77914000
134.31999918	26.95395000
134.35999918	43.12265000
134.39999918	59.29746000
134.43999918	73.67168000
134.47999918	86.25141000
134.51999918	97.03055000
134.55999918	107.81580000
134.59999918	115.00600000
134.63999918	122.19000000
134.67999918	129.38020000
134.71999918	132.97520000
134.75999918	134.76970000
134.79999918	136.56420000
134.83999918	132.97520000
134.87999918	129.38020000
134.91999918	122.19000000
134.95999918	118.59490000
134.99999918	111.41090000
135.03999918	106.01520000
135.07999918	98.83114000
135.11999918	91.64098000
135.15999918	84.45692000
135.19999918	77.26676000
135.23999918	70.07660000
135.27999918	61.09195000
135.31999918	52.10730000
135.35999918	43.12265000
135.39999918	32.34352000
135.43999918	21.55827000
135.47999918	10.77914000
135.51999918	-1.79448800
135.55999918	-14.37422000
135.59999918	-25.15336000
135.63999918	-37.73308000
135.67999918	-50.31281000
135.71999918	-59.29746000
135.75999917	-70.07660000
135.79999917	-80.86184000
135.83999917	-88.04590000
135.87999917	-95.23605000
135.91999917	-102.42620000
135.95999917	-106.01520000
135.99999917	-111.41090000
136.03999917	-115.00600000
136.07999917	-115.00600000
136.11999917	-116.80040000
136.15999917	-107.81580000
136.19999917	-104.22070000
136.23999917	-93.44157000
136.27999917	-91.64098000
136.31999917	-86.25141000
136.35999917	-84.45692000
136.39999917	-80.86184000
136.43999917	-79.06125000
136.47999917	-79.06125000
136.51999917	-73.67168000
136.55999917	-73.67168000
136.59999917	-70.07660000
136.63999917	-68.28211000
136.67999917	-59.29746000
136.71999917	-55.70238000
136.75999917	-43.12265000
136.79999917	-34.13800000
136.83999917	-16.16870000
136.87999917	-1.79448800
136.91999917	14.37422000
136.95999917	28.74844000
136.99999917	48.51222000
137.03999917	70.07660000
137.07999917	84.45692000
137.11999917	97.03055000
137.15999917	109.61030000
137.19999917	120.39550000
137.23999917	132.97520000
137.27999917	140.15930000
137.31999917	145.54890000
137.35999917	147.34950000
137.39999916	145.54890000
137.43999916	138.36480000
137.47999916	131.17470000
137.51999916	122.19000000
137.55999916	115.00600000
137.59999916	107.81580000
137.63999916	100.62560000
137.67999916	95.23605000
137.71999916	88.04590000
137.75999916	82.65633000
137.79999916	77.26676000
137.83999916	68.28211000
137.87999916	61.09195000
137.91999916	53.90789000
137.95999916	43.12265000
137.99999916	34.13800000
138.03999916	21.55827000
138.07999916	10.77914000
138.11999916	-1.79448800
138.15999916	-12.57363000
138.19999916	-23.35887000
138.23999916	-35.93859000
138.27999916	-46.71774000
138.31999916	-57.50298000
138.35999916	-68.28211000
138.39999916	-79.06125000
138.43999916	-86.25141000
138.47999916	-93.44157000
138.51999916	-98.83114000
138.55999916	-106.01520000
138.59999916	-111.41090000
138.63999916	-115.00600000
138.67999916	-113.20540000
138.71999916	-109.61030000
138.75999916	-104.22070000
138.79999916	-102.42620000
138.83999916	-98.83114000
138.87999916	-93.44157000
138.91999916	-89.84650000
138.95999916	-88.04590000
138.99999916	-86.25141000
139.03999915	-82.65633000
139.07999915	-80.86184000
139.11999915	-79.06125000
139.15999915	-73.67168000
139.19999915	-70.07660000
139.23999915	-64.68703000
139.27999915	-59.29746000
139.31999915	-50.31281000
139.35999915	-41.32816000
139.39999915	-26.95395000
139.43999915	-14.37422000
139.47999915	1.79448800
139.51999915	17.96930000
139.55999915	35.93859000
139.59999915	52.10730000
139.63999915	68.28211000
139.67999915	82.65633000
139.71999915	97.03055000
139.75999915	107.81580000
139.79999915	118.59490000
139.83999915	127.57960000
139.87999915	136.56420000
139.91999915	141.95990000
139.95999915	141.95990000
139.99999915	140.15930000
140.03999915	134.76970000
140.07999915	129.38020000
140.11999915	120.39550000
140.15999915	115.00600000
140.19999915	109.61030000
140.23999915	104.22070000
140.27999915	97.03055000
140.31999915	91.64098000
140.35999915	84.45692000
140.39999915	79.06125000
140.43999915	71.87719000
140.47999915	62.89254000
140.51999915	55.70238000
140.55999915	46.71774000
140.59999915	35.93859000
140.63999915	25.15336000
140.67999915	12.57363000
140.71999914	0.00000000
140.75999914	-14.37422000
140.79999914	-26.95395000
140.83999914	-37.73308000
140.87999914	-48.51222000
140.91999914	-59.29746000
140.95999914	-68.28211000
140.99999914	-75.47227000
141.03999914	-84.45692000
141.07999914	-91.64098000
141.11999914	-98.83114000
141.15999914	-102.42620000
141.19999914	-107.81580000
141.23999914	-111.41090000
141.27999914	-115.00600000
141.31999914	-116.80040000
141.35999914	-116.80040000
141.39999914	-115.00600000
141.43999914	-115.00600000
141.47999914	-111.41090000
141.51999914	-107.81580000
141.55999914	-104.22070000
141.59999914	-98.83114000
141.63999914	-93.44157000
141.67999914	-86.25141000
141.71999914	-80.86184000
141.75999914	-71.87719000
141.79999914	-64.68703000
141.83999914	-53.90789000
141.87999914	-46.71774000
141.91999914	-48.51222000
141.95999914	-28.74844000
141.99999914	-10.77914000
142.03999914	-5.38956800
142.07999914	3.58897700
142.11999914	14.37422000
142.15999914	28.74844000
142.19999914	41.32816000
142.23999914	50.31281000
142.27999914	61.09195000
142.31999914	73.67168000
142.35999913	84.45692000
142.39999913	93.44157000
142.43999913	106.01520000
142.47999913	116.80040000
142.51999913	123.99060000
142.55999913	132.97520000
142.59999913	140.15930000
142.63999913	141.95990000
142.67999913	140.15930000
142.71999913	134.76970000
142.75999913	129.38020000
142.79999913	120.39550000
142.83999913	113.20540000
142.87999913	106.01520000
142.91999913	97.03055000
142.95999913	88.04590000
142.99999913	79.06125000
143.03999913	71.87719000
143.07999913	62.89254000
143.11999913	52.10730000
143.15999913	43.12265000
143.19999913	32.34352000
143.23999913	21.55827000
143.27999913	8.98464900
143.31999913	-3.58897700
143.35999913	-14.37422000
143.39999913	-25.15336000
143.43999913	-37.73308000
143.47999913	-50.31281000
143.51999913	-59.29746000
143.55999913	-66.48762000
143.59999913	-77.26676000
143.63999913	-86.25141000
143.67999913	-91.64098000
143.71999913	-97.03055000
143.75999913	-102.42620000
143.79999913	-107.81580000
143.83999913	-111.41090000
143.87999913	-116.80040000
143.91999913	-120.39550000
143.95999913	-122.19000000
143.99999912	-122.19000000
144.03999912	-123.99060000
144.07999912	-122.19000000
144.11999912	-118.59490000
144.15999912	-115.00600000
144.19999912	-111.41090000
144.23999912	-106.01520000
144.27999912	-98.83114000
144.31999912	-89.84650000
144.35999912	-82.65633000
144.39999912	-71.87719000
144.43999912	-62.89254000
144.47999912	-53.90789000
144.51999912	-43.12265000
144.55999912	-32.34352000
144.59999912	-21.55827000
144.63999912	-8.98464900
144.67999912	1.79448800
144.71999912	14.37422000
144.75999912	25.15336000
144.79999912	35.93859000
144.83999912	44.92325000
144.87999912	57.50298000
144.91999912	64.68703000
144.95999912	75.47227000
144.99999912	86.25141000
145.03999912	95.23605000
145.07999912	106.01520000
145.11999912	115.00600000
145.15999912	123.99060000
145.19999912	131.17470000
145.23999912	136.56420000
145.27999912	138.36480000
145.31999912	136.56420000
145.35999912	132.97520000
145.39999912	127.57960000
145.43999912	120.39550000
145.47999912	111.41090000
145.51999912	102.42620000
145.55999912	93.44157000
145.59999912	84.45692000
145.63999911	73.67168000
145.67999911	62.89254000
145.71999911	52.10730000
145.75999911	41.32816000
145.79999911	30.54292000
145.83999911	19.76379000
145.87999911	8.98464900
145.91999911	-1.79448800
145.95999911	-12.57363000
145.99999911	-23.35887000
146.03999911	-35.93859000
146.07999911	-44.92325000
146.11999911	-53.90789000
146.15999911	-62.89254000
146.19999911	-71.87719000
146.23999911	-80.86184000
146.27999911	-88.04590000
146.31999911	-93.44157000
146.35999911	-100.62560000
146.39999911	-107.81580000
146.43999911	-111.41090000
146.47999911	-116.80040000
146.51999911	-118.59490000
146.55999911	-122.19000000
146.59999911	-116.80040000
146.63999911	-115.00600000
146.67999911	-104.22070000
146.71999911	-100.62560000
146.75999911	-95.23605000
146.79999911	-95.23605000
146.83999911	-88.04590000
146.87999911	-82.65633000
146.91999911	-79.06125000
146.95999911	-77.26676000
146.99999911	-73.67168000
147.03999911	-71.87719000
147.07999911	-66.48762000
147.11999911	-61.09195000
147.15999911	-55.70238000
147.19999911	-46.71774000
147.23999911	-35.93859000
147.27999910	-23.35887000
147.31999910	-10.77914000
147.35999910	5.38956800
147.39999910	21.55827000
147.43999910	39.52757000
147.47999910	57.50298000
147.51999910	75.47227000
147.55999910	91.64098000
147.59999910	106.01520000
147.63999910	120.39550000
147.67999910	134.76970000
147.71999910	143.75440000
147.75999910	150.94450000
147.79999910	152.73900000
147.83999910	149.14400000
147.87999910	141.95990000
147.91999910	134.76970000
147.95999910	123.99060000
147.99999910	115.00600000
148.03999910	106.01520000
148.07999910	97.03055000
148.11999910	91.64098000
148.15999910	86.25141000
148.19999910	79.06125000
148.23999910	71.87719000
148.27999910	64.68703000
148.31999910	57.50298000
148.35999910	50.31281000
148.39999910	39.52757000
148.43999910	28.74844000
148.47999910	17.96930000
148.51999910	5.38956800
148.55999910	-7.18405700
148.59999910	-19.76379000
148.63999910	-30.54292000
148.67999910	-41.32816000
148.71999910	-52.10730000
148.75999910	-59.29746000
148.79999910	-70.07660000
148.83999910	-77.26676000
148.87999910	-86.25141000
148.91999909	-91.64098000
148.95999909	-98.83114000
148.99999909	-106.01520000
149.03999909	-109.61030000
149.07999909	-113.20540000
149.11999909	-109.61030000
149.15999909	-109.61030000
149.19999909	-100.62560000
149.23999909	-98.83114000
149.27999909	-95.23605000
149.31999909	-91.64098000
149.35999909	-89.84650000
149.39999909	-88.04590000
149.43999909	-86.25141000
149.47999909	-84.45692000
149.51999909	-80.86184000
149.55999909	-80.86184000
149.59999909	-77.26676000
149.63999909	-73.67168000
149.67999909	-68.28211000
149.71999909	-61.09195000
149.75999909	-52.10730000
149.79999909	-43.12265000
149.83999909	-28.74844000
149.87999909	-16.16870000
149.91999909	0.00000000
149.95999909	16.16870000
149.99999909	34.13800000
150.03999909	50.31281000
150.07999909	68.28211000
150.11999909	82.65633000
150.15999909	97.03055000
150.19999909	109.61030000
150.23999909	122.19000000
150.27999909	132.97520000
150.31999909	140.15930000
150.35999909	147.34950000
150.39999909	147.34950000
150.43999909	143.75440000
150.47999909	136.56420000
150.51999909	129.38020000
150.55999908	120.39550000
150.59999908	115.00600000
150.63999908	106.01520000
150.67999908	100.62560000
150.71999908	93.44157000
150.75999908	88.04590000
150.79999908	80.86184000
150.83999908	75.47227000
150.87999908	66.48762000
150.91999908	57.50298000
150.95999908	50.31281000
150.99999908	39.52757000
151.03999908	28.74844000
151.07999908	17.96930000
151.11999908	5.38956800
151.15999908	-5.38956800
151.19999908	-16.16870000
151.23999908	-28.74844000
151.27999908	-39.52757000
151.31999908	-50.31281000
151.35999908	-59.29746000
151.39999908	-68.28211000
151.43999908	-77.26676000
151.47999908	-86.25141000
151.51999908	-93.44157000
151.55999908	-98.83114000
151.59999908	-104.22070000
151.63999908	-109.61030000
151.67999908	-113.20540000
151.71999908	-115.00600000
151.75999908	-129.38020000
151.79999908	-118.59490000
151.83999908	-111.41090000
151.87999908	-113.20540000
151.91999908	-115.00600000
151.95999908	-111.41090000
151.99999908	-102.42620000
152.03999908	-95.23605000
152.07999908	-93.44157000
152.11999908	-84.45692000
152.15999908	-75.47227000
152.19999908	-68.28211000
152.23999907	-61.09195000
152.27999907	-50.31281000
152.31999907	-41.32816000
152.35999907	-32.34352000
152.39999907	-23.35887000
152.43999907	-12.57363000
152.47999907	-1.79448800
152.51999907	5.38956800
152.55999907	7.18405700
152.59999907	10.77914000
152.63999907	16.16870000
152.67999907	26.95395000
152.71999907	44.92325000
152.75999907	66.48762000
152.79999907	91.64098000
152.83999907	113.20540000
152.87999907	140.15930000
152.91999907	158.12860000
152.95999907	167.11330000
152.99999907	165.31880000
153.03999907	158.12860000
153.07999907	147.34950000
153.11999907	136.56420000
153.15999907	123.99060000
153.19999907	109.61030000
153.23999907	100.62560000
153.27999907	95.23605000
153.31999907	89.84650000
153.35999907	82.65633000
153.39999907	73.67168000
153.43999907	64.68703000
153.47999907	57.50298000
153.51999907	48.51222000
153.55999907	37.73308000
153.59999907	26.95395000
153.63999907	19.76379000
153.67999907	10.77914000
153.71999907	3.58897700
153.75999907	-7.18405700
153.79999907	-14.37422000
153.83999907	-21.55827000
153.87999906	-28.74844000
153.91999906	-35.93859000
153.95999906	-44.92325000
153.99999906	-55.70238000
154.03999906	-68.28211000
154.07999906	-80.86184000
154.11999906	-93.44157000
154.15999906	-102.42620000
154.19999906	-113.20540000
154.23999906	-118.59490000
154.27999906	-122.19000000
154.31999906	-123.99060000
154.35999906	-123.99060000
154.39999906	-122.19000000
154.43999906	-118.59490000
154.47999906	-109.61030000
154.51999906	-102.42620000
154.55999906	-97.03055000
154.59999906	-93.44157000
154.63999906	-89.84650000
154.67999906	-82.65633000
154.71999906	-79.06125000
154.75999906	-71.87719000
154.79999906	-66.48762000
154.83999906	-59.29746000
154.87999906	-55.70238000
154.91999906	-52.10730000
154.95999906	-50.31281000
154.99999906	-44.92325000
155.03999906	-39.52757000
155.07999906	-28.74844000
155.11999906	-16.16870000
155.15999906	0.00000000
155.19999906	16.16870000
155.23999906	34.13800000
155.27999906	52.10730000
155.31999906	70.07660000
155.35999906	86.25141000
155.39999906	100.62560000
155.43999906	115.00600000
155.47999906	127.57960000
155.51999905	138.36480000
155.55999905	145.54890000
155.59999905	149.14400000
155.63999905	147.34950000
155.67999905	141.95990000
155.71999905	136.56420000
155.75999905	127.57960000
155.79999905	118.59490000
155.83999905	111.41090000
155.87999905	104.22070000
155.91999905	97.03055000
155.95999905	89.84650000
155.99999905	80.86184000
156.03999905	71.87719000
156.07999905	62.89254000
156.11999905	53.90789000
156.15999905	43.12265000
156.19999905	34.13800000
156.23999905	25.15336000
156.27999905	16.16870000
156.31999905	7.18405700
156.35999905	-3.58897700
156.39999905	-12.57363000
156.43999905	-23.35887000
156.47999905	-34.13800000
156.51999905	-43.12265000
156.55999905	-55.70238000
156.59999905	-64.68703000
156.63999905	-79.06125000
156.67999905	-84.45692000
156.71999905	-88.04590000
156.75999905	-97.03055000
156.79999905	-104.22070000
156.83999905	-113.20540000
156.87999905	-116.80040000
156.91999905	-122.19000000
156.95999905	-123.99060000
156.99999905	-125.78510000
157.03999905	-125.78510000
157.07999905	-123.99060000
157.11999905	-120.39550000
157.15999904	-116.80040000
157.19999904	-113.20540000
157.23999904	-107.81580000
157.27999904	-98.83114000
157.31999904	-89.84650000
157.35999904	-73.67168000
157.39999904	-64.68703000
157.43999904	-52.10730000
157.47999904	-44.92325000
157.51999904	-35.93859000
157.55999904	-30.54292000
157.59999904	-25.15336000
157.63999904	-16.16870000
157.67999904	-12.57363000
157.71999904	-3.58897700
157.75999904	5.38956800
157.79999904	14.37422000
157.83999904	25.15336000
157.87999904	35.93859000
157.91999904	48.51222000
157.95999904	59.29746000
157.99999904	73.67168000
158.03999904	88.04590000
158.07999904	102.42620000
158.11999904	116.80040000
158.15999904	129.38020000
158.19999904	138.36480000
158.23999904	145.54890000
158.27999904	147.34950000
158.31999904	145.54890000
158.35999904	136.56420000
158.39999904	129.38020000
158.43999904	122.19000000
158.47999904	111.41090000
158.51999904	102.42620000
158.55999904	93.44157000
158.59999904	84.45692000
158.63999904	75.47227000
158.67999904	66.48762000
158.71999904	57.50298000
158.75999904	48.51222000
158.79999903	34.13800000
158.83999903	26.95395000
158.87999903	16.16870000
158.91999903	3.58897700
158.95999903	-7.18405700
158.99999903	-17.96930000
159.03999903	-28.74844000
159.07999903	-39.52757000
159.11999903	-50.31281000
159.15999903	-57.50298000
159.19999903	-64.68703000
159.23999903	-73.67168000
159.27999903	-79.06125000
159.31999903	-86.25141000
159.35999903	-93.44157000
159.39999903	-98.83114000
159.43999903	-104.22070000
159.47999903	-109.61030000
159.51999903	-116.80040000
159.55999903	-122.19000000
159.59999903	-123.99060000
159.63999903	-127.57960000
159.67999903	-129.38020000
159.71999903	-127.57960000
159.75999903	-125.78510000
159.79999903	-122.19000000
159.83999903	-116.80040000
159.87999903	-111.41090000
159.91999903	-102.42620000
159.95999903	-93.44157000
159.99999903	-86.25141000
160.03999903	-73.67168000
160.07999903	-64.68703000
160.11999903	-53.90789000
160.15999903	-43.12265000
160.19999903	-32.34352000
160.23999903	-21.55827000
160.27999903	-10.77914000
160.31999903	0.00000000
160.35999903	12.57363000
160.39999903	21.55827000
160.43999902	32.34352000
160.47999902	41.32816000
160.51999902	52.10730000
160.55999902	61.09195000
160.59999902	70.07660000
160.63999902	79.06125000
160.67999902	88.04590000
160.71999902	98.83114000
160.75999902	107.81580000
160.79999902	116.80040000
160.83999902	125.78510000
160.87999902	131.17470000
160.91999902	134.76970000
160.95999902	136.56420000
160.99999902	134.76970000
161.03999902	129.38020000
161.07999902	122.19000000
161.11999902	115.00600000
161.15999902	106.01520000
161.19999902	95.23605000
161.23999902	84.45692000
161.27999902	73.67168000
161.31999902	62.89254000
161.35999902	50.31281000
161.39999902	39.52757000
161.43999902	28.74844000
161.47999902	16.16870000
161.51999902	5.38956800
161.55999902	-1.79448800
161.59999902	-23.35887000
161.63999902	-28.74844000
161.67999902	-28.74844000
161.71999902	-41.32816000
161.75999902	-57.50298000
161.79999902	-66.48762000
161.83999902	-75.47227000
161.87999902	-86.25141000
161.91999902	-107.81580000
161.95999902	-123.99060000
161.99999902	-118.59490000
162.03999902	-102.42620000
162.07999901	-104.22070000
162.11999901	-107.81580000
162.15999901	-95.23605000
162.19999901	-82.65633000
162.23999901	-84.45692000
162.27999901	-98.83114000
162.31999901	-116.80040000
162.35999901	-123.99060000
162.39999901	-127.57960000
162.43999901	-115.00600000
162.47999901	-116.80040000
162.51999901	-109.61030000
162.55999901	-98.83114000
162.59999901	-77.26676000
162.63999901	-70.07660000
162.67999901	-71.87719000
162.71999901	-70.07660000
162.75999901	-64.68703000
162.79999901	-53.90789000
162.83999901	-46.71774000
162.87999901	-43.12265000
162.91999901	-35.93859000
162.95999901	-21.55827000
162.99999901	-5.38956800
163.03999901	12.57363000
163.07999901	30.54292000
163.11999901	50.31281000
163.15999901	71.87719000
163.19999901	93.44157000
163.23999901	109.61030000
163.27999901	122.19000000
163.31999901	127.57960000
163.35999901	134.76970000
163.39999901	140.15930000
163.43999901	141.95990000
163.47999901	136.56420000
163.51999901	129.38020000
163.55999901	123.99060000
163.59999901	118.59490000
163.63999901	115.00600000
163.67999901	109.61030000
163.71999900	102.42620000
163.75999900	97.03055000
163.79999900	89.84650000
163.83999900	80.86184000
163.87999900	70.07660000
163.91999900	57.50298000
163.95999900	50.31281000
163.99999900	43.12265000
164.03999900	35.93859000
164.07999900	30.54292000
164.11999900	21.55827000
164.15999900	12.57363000
164.19999900	1.79448800
164.23999900	-8.98464900
164.27999900	-21.55827000
164.31999900	-34.13800000
164.35999900	-44.92325000
164.39999900	-57.50298000
164.43999900	-66.48762000
164.47999900	-79.06125000
164.51999900	-86.25141000
164.55999900	-95.23605000
164.59999900	-102.42620000
164.63999900	-109.61030000
164.67999900	-116.80040000
164.71999900	-120.39550000
164.75999900	-123.99060000
164.79999900	-116.80040000
164.83999900	-111.41090000
164.87999900	-100.62560000
164.91999900	-97.03055000
164.95999900	-91.64098000
164.99999900	-88.04590000
165.03999900	-86.25141000
165.07999900	-86.25141000
165.11999900	-82.65633000
165.15999900	-82.65633000
165.19999900	-79.06125000
165.23999900	-79.06125000
165.27999900	-77.26676000
165.31999900	-77.26676000
165.35999900	-71.87719000
165.39999899	-66.48762000
165.43999899	-59.29746000
165.47999899	-44.92325000
165.51999899	-32.34352000
165.55999899	-14.37422000
165.59999899	3.58897700
165.63999899	21.55827000
165.67999899	41.32816000
165.71999899	59.29746000
165.75999899	77.26676000
165.79999899	93.44157000
165.83999899	107.81580000
165.87999899	120.39550000
165.91999899	132.97520000
165.95999899	141.95990000
165.99999899	149.14400000
166.03999899	150.94450000
166.07999899	150.94450000
166.11999899	143.75440000
166.15999899	136.56420000
166.19999899	127.57960000
166.23999899	116.80040000
166.27999899	107.81580000
166.31999899	100.62560000
166.35999899	93.44157000
166.39999899	86.25141000
166.43999899	79.06125000
166.47999899	70.07660000
166.51999899	64.68703000
166.55999899	61.09195000
166.59999899	55.70238000
166.63999899	44.92325000
166.67999899	34.13800000
166.71999899	23.35887000
166.75999899	12.57363000
166.79999899	0.00000000
166.83999899	-12.57363000
166.87999899	-25.15336000
166.91999899	-35.93859000
166.95999899	-46.71774000
166.99999899	-57.50298000
167.03999898	-66.48762000
167.07999898	-75.47227000
167.11999898	-84.45692000
167.15999898	-89.84650000
167.19999898	-97.03055000
167.23999898	-104.22070000
167.27999898	-109.61030000
167.31999898	-115.00600000
167.35999898	-118.59490000
167.39999898	-122.19000000
167.43999898	-118.59490000
167.47999898	-120.39550000
167.51999898	-104.22070000
167.55999898	-97.03055000
167.59999898	-82.65633000
167.63999898	-79.06125000
167.67999898	-71.87719000
167.71999898	-70.07660000
167.75999898	-66.48762000
167.79999898	-64.68703000
167.83999898	-62.89254000
167.87999898	-61.09195000
167.91999898	-59.29746000
167.95999898	-59.29746000
167.99999898	-55.70238000
168.03999898	-50.31281000
168.07999898	-41.32816000
168.11999898	-32.34352000
168.15999898	-16.16870000
168.19999898	1.79448800
168.23999898	19.76379000
168.27999898	39.52757000
168.31999898	57.50298000
168.35999898	77.26676000
168.39999898	93.44157000
168.43999898	109.61030000
168.47999898	125.78510000
168.51999898	138.36480000
168.55999898	147.34950000
168.59999898	156.33410000
168.63999898	156.33410000
168.67999897	150.94450000
168.71999897	141.95990000
168.75999897	134.76970000
168.79999897	123.99060000
168.83999897	115.00600000
168.87999897	107.81580000
168.91999897	100.62560000
168.95999897	93.44157000
168.99999897	86.25141000
169.03999897	79.06125000
169.07999897	71.87719000
169.11999897	64.68703000
169.15999897	55.70238000
169.19999897	46.71774000
169.23999897	37.73308000
169.27999897	26.95395000
169.31999897	14.37422000
169.35999897	3.58897700
169.39999897	-7.18405700
169.43999897	-19.76379000
169.47999897	-30.54292000
169.51999897	-41.32816000
169.55999897	-50.31281000
169.59999897	-57.50298000
169.63999897	-66.48762000
169.67999897	-73.67168000
169.71999897	-80.86184000
169.75999897	-88.04590000
169.79999897	-97.03055000
169.83999897	-102.42620000
169.87999897	-109.61030000
169.91999897	-115.00600000
169.95999897	-118.59490000
169.99999897	-122.19000000
170.03999897	-122.19000000
170.07999897	-120.39550000
170.11999897	-118.59490000
170.15999897	-115.00600000
170.19999897	-111.41090000
170.23999897	-106.01520000
170.27999897	-100.62560000
170.31999896	-93.44157000
170.35999896	-86.25141000
170.39999896	-79.06125000
170.43999896	-70.07660000
170.47999896	-61.09195000
170.51999896	-52.10730000
170.55999896	-43.12265000
170.59999896	-32.34352000
170.63999896	-21.55827000
170.67999896	-10.77914000
170.71999896	-1.79448800
170.75999896	8.98464900
170.79999896	19.76379000
170.83999896	28.74844000
170.87999896	39.52757000
170.91999896	50.31281000
170.95999896	59.29746000
170.99999896	70.07660000
171.03999896	79.06125000
171.07999896	89.84650000
171.11999896	100.62560000
171.15999896	111.41090000
171.19999896	120.39550000
171.23999896	129.38020000
171.27999896	136.56420000
171.31999896	140.15930000
171.35999896	141.95990000
171.39999896	138.36480000
171.43999896	120.39550000
171.47999896	122.19000000
171.51999896	120.39550000
171.55999896	107.81580000
171.59999896	93.44157000
171.63999896	82.65633000
171.67999896	77.26676000
171.71999896	66.48762000
171.75999896	52.10730000
171.79999896	43.12265000
171.83999896	34.13800000
171.87999896	23.35887000
171.91999896	10.77914000
171.95999895	1.79448800
171.99999895	-8.98464900
172.03999895	-21.55827000
172.07999895	-30.54292000
172.11999895	-39.52757000
172.15999895	-50.31281000
172.19999895	-59.29746000
172.23999895	-68.28211000
172.27999895	-75.47227000
172.31999895	-82.65633000
172.35999895	-89.84650000
172.39999895	-97.03055000
172.43999895	-100.62560000
172.47999895	-107.81580000
172.51999895	-111.41090000
172.55999895	-115.00600000
172.59999895	-120.39550000
172.63999895	-122.19000000
172.67999895	-125.78510000
172.71999895	-122.19000000
172.75999895	-116.80040000
172.79999895	-107.81580000
172.83999895	-97.03055000
172.87999895	-86.25141000
172.91999895	-80.86184000
172.95999895	-73.67168000
172.99999895	-70.07660000
173.03999895	-66.48762000
173.07999895	-62.89254000
173.11999895	-59.29746000
173.15999895	-53.90789000
173.19999895	-55.70238000
173.23999895	-50.31281000
173.27999895	-44.92325000
173.31999895	-32.34352000
173.35999895	-23.35887000
173.39999895	-7.18405700
173.43999895	10.77914000
173.47999895	28.74844000
173.51999895	48.51222000
173.55999895	66.48762000
173.59999894	84.45692000
173.63999894	100.62560000
173.67999894	116.80040000
173.71999894	129.38020000
173.75999894	141.95990000
173.79999894	149.14400000
173.83999894	152.73900000
173.87999894	149.14400000
173.91999894	141.95990000
173.95999894	134.76970000
173.99999894	125.78510000
174.03999894	116.80040000
174.07999894	109.61030000
174.11999894	100.62560000
174.15999894	93.44157000
174.19999894	86.25141000
174.23999894	79.06125000
174.27999894	71.87719000
174.31999894	62.89254000
174.35999894	55.70238000
174.39999894	46.71774000
174.43999894	35.93859000
174.47999894	26.95395000
174.51999894	16.16870000
174.55999894	5.38956800
174.59999894	-5.38956800
174.63999894	-16.16870000
174.67999894	-26.95395000
174.71999894	-35.93859000
174.75999894	-46.71774000
174.79999894	-55.70238000
174.83999894	-64.68703000
174.87999894	-71.87719000
174.91999894	-80.86184000
174.95999894	-88.04590000
174.99999894	-97.03055000
175.03999894	-104.22070000
175.07999894	-111.41090000
175.11999894	-115.00600000
175.15999894	-122.19000000
175.19999894	-116.80040000
175.23999893	-113.20540000
175.27999893	-107.81580000
175.31999893	-104.22070000
175.35999893	-98.83114000
175.39999893	-95.23605000
175.43999893	-91.64098000
175.47999893	-88.04590000
175.51999893	-86.25141000
175.55999893	-82.65633000
175.59999893	-80.86184000
175.63999893	-79.06125000
175.67999893	-73.67168000
175.71999893	-68.28211000
175.75999893	-62.89254000
175.79999893	-53.90789000
175.83999893	-43.12265000
175.87999893	-32.34352000
175.91999893	-17.96930000
175.95999893	-3.58897700
175.99999893	12.57363000
176.03999893	28.74844000
176.07999893	43.12265000
176.11999893	59.29746000
176.15999893	73.67168000
176.19999893	86.25141000
176.23999893	98.83114000
176.27999893	111.41090000
176.31999893	116.80040000
176.35999893	129.38020000
176.39999893	140.15930000
176.43999893	147.34950000
176.47999893	145.54890000
176.51999893	140.15930000
176.55999893	134.76970000
176.59999893	127.57960000
176.63999893	118.59490000
176.67999893	111.41090000
176.71999893	104.22070000
176.75999893	95.23605000
176.79999893	89.84650000
176.83999893	80.86184000
176.87999893	73.67168000
176.91999892	64.68703000
176.95999892	57.50298000
176.99999892	48.51222000
177.03999892	41.32816000
177.07999892	30.54292000
177.11999892	21.55827000
177.15999892	8.98464900
177.19999892	-1.79448800
177.23999892	-14.37422000
177.27999892	-25.15336000
177.31999892	-35.93859000
177.35999892	-46.71774000
177.39999892	-57.50298000
177.43999892	-66.48762000
177.47999892	-73.67168000
177.51999892	-82.65633000
177.55999892	-89.84650000
177.59999892	-97.03055000
177.63999892	-102.42620000
177.67999892	-107.81580000
177.71999892	-115.00600000
177.75999892	-118.59490000
177.79999892	-120.39550000
177.83999892	-116.80040000
177.87999892	-118.59490000
177.91999892	-107.81580000
177.95999892	-100.62560000
177.99999892	-88.04590000
178.03999892	-86.25141000
178.07999892	-79.06125000
178.11999892	-77.26676000
178.15999892	-71.87719000
178.19999892	-68.28211000
178.23999892	-66.48762000
178.27999892	-64.68703000
178.31999892	-62.89254000
178.35999892	-59.29746000
178.39999892	-53.90789000
178.43999892	-46.71774000
178.47999892	-37.73308000
178.51999892	-26.95395000
178.55999891	-8.98464900
178.59999891	5.38956800
178.63999891	23.35887000
178.67999891	41.32816000
178.71999891	59.29746000
178.75999891	77.26676000
178.79999891	89.84650000
178.83999891	106.01520000
178.87999891	120.39550000
178.91999891	131.17470000
178.95999891	141.95990000
178.99999891	147.34950000
179.03999891	150.94450000
179.07999891	147.34950000
179.11999891	141.95990000
179.15999891	132.97520000
179.19999891	123.99060000
179.23999891	115.00600000
179.27999891	106.01520000
179.31999891	98.83114000
179.35999891	91.64098000
179.39999891	86.25141000
179.43999891	79.06125000
179.47999891	71.87719000
179.51999891	64.68703000
179.55999891	57.50298000
179.59999891	50.31281000
179.63999891	41.32816000
179.67999891	32.34352000
179.71999891	21.55827000
179.75999891	10.77914000
179.79999891	-1.79448800
179.83999891	-14.37422000
179.87999891	-26.95395000
179.91999891	-37.73308000
179.95999891	-50.31281000
179.99999891	-59.29746000
180.03999891	-68.28211000
180.07999891	-79.06125000
180.11999891	-86.25141000
180.15999891	-93.44157000
180.19999890	-102.42620000
180.23999890	-107.81580000
180.27999890	-113.20540000
180.31999890	-118.59490000
180.35999890	-122.19000000
180.39999890	-120.39550000
180.43999890	-120.39550000
180.47999890	-120.39550000
180.51999890	-116.80040000
180.55999890	-115.00600000
180.59999890	-109.61030000
180.63999890	-104.22070000
180.67999890	-100.62560000
180.71999890	-91.64098000
180.75999890	-86.25141000
180.79999890	-79.06125000
180.83999890	-71.87719000
180.87999890	-62.89254000
180.91999890	-55.70238000
180.95999890	-46.71774000
180.99999890	-35.93859000
181.03999890	-26.95395000
181.07999890	-17.96930000
181.11999890	-7.18405700
181.15999890	1.79448800
181.19999890	14.37422000
181.23999890	28.74844000
181.27999890	28.74844000
181.31999890	43.12265000
181.35999890	62.89254000
181.39999890	73.67168000
181.43999890	77.26676000
181.47999890	89.84650000
181.51999890	100.62560000
181.55999890	115.00600000
181.59999890	123.99060000
181.63999890	131.17470000
181.67999890	140.15930000
181.71999890	143.75440000
181.75999890	141.95990000
181.79999890	136.56420000
181.83999889	129.38020000
181.87999889	122.19000000
181.91999889	113.20540000
181.95999889	102.42620000
181.99999889	95.23605000
182.03999889	82.65633000
182.07999889	73.67168000
182.11999889	62.89254000
182.15999889	52.10730000
182.19999889	43.12265000
182.23999889	32.34352000
182.27999889	21.55827000
182.31999889	12.57363000
182.35999889	3.58897700
182.39999889	-7.18405700
182.43999889	-17.96930000
182.47999889	-26.95395000
182.51999889	-35.93859000
182.55999889	-46.71774000
182.59999889	-57.50298000
182.63999889	-66.48762000
182.67999889	-71.87719000
182.71999889	-80.86184000
182.75999889	-89.84650000
182.79999889	-97.03055000
182.83999889	-100.62560000
182.87999889	-107.81580000
182.91999889	-115.00600000
182.95999889	-116.80040000
182.99999889	-118.59490000
183.03999889	-113.20540000
183.07999889	-109.61030000
183.11999889	-100.62560000
183.15999889	-95.23605000
183.19999889	-89.84650000
183.23999889	-88.04590000
183.27999889	-86.25141000
183.31999889	-82.65633000
183.35999889	-80.86184000
183.39999889	-79.06125000
183.43999889	-77.26676000
183.47999888	-73.67168000
183.51999888	-70.07660000
183.55999888	-66.48762000
183.59999888	-59.29746000
183.63999888	-52.10730000
183.67999888	-39.52757000
183.71999888	-28.74844000
183.75999888	-14.37422000
183.79999888	1.79448800
183.83999888	21.55827000
183.87999888	37.73308000
183.91999888	55.70238000
183.95999888	73.67168000
183.99999888	89.84650000
184.03999888	106.01520000
184.07999888	118.59490000
184.11999888	132.97520000
184.15999888	141.95990000
184.19999888	149.14400000
184.23999888	152.73900000
184.27999888	150.94450000
184.31999888	143.75440000
184.35999888	134.76970000
184.39999888	127.57960000
184.43999888	116.80040000
184.47999888	107.81580000
184.51999888	100.62560000
184.55999888	93.44157000
184.59999888	86.25141000
184.63999888	80.86184000
184.67999888	73.67168000
184.71999888	66.48762000
184.75999888	59.29746000
184.79999888	50.31281000
184.83999888	41.32816000
184.87999888	32.34352000
184.91999888	19.76379000
184.95999888	7.18405700
184.99999888	-3.58897700
185.03999888	-14.37422000
185.07999888	-26.95395000
185.11999887	-37.73308000
185.15999887	-46.71774000
185.19999887	-57.50298000
185.23999887	-64.68703000
185.27999887	-73.67168000
185.31999887	-80.86184000
185.35999887	-89.84650000
185.39999887	-97.03055000
185.43999887	-102.42620000
185.47999887	-109.61030000
185.51999887	-111.41090000
185.55999887	-115.00600000
185.59999887	-109.61030000
185.63999887	-106.01520000
185.67999887	-98.83114000
185.71999887	-95.23605000
185.75999887	-91.64098000
185.79999887	-88.04590000
185.83999887	-84.45692000
185.87999887	-82.65633000
185.91999887	-80.86184000
185.95999887	-79.06125000
185.99999887	-79.06125000
186.03999887	-73.67168000
186.07999887	-71.87719000
186.11999887	-66.48762000
186.15999887	-64.68703000
186.19999887	-50.31281000
186.23999887	-25.15336000
186.27999887	7.18405700
186.31999887	14.37422000
186.35999887	3.58897700
186.39999887	12.57363000
186.43999887	28.74844000
186.47999887	30.54292000
186.51999887	21.55827000
186.55999887	28.74844000
186.59999887	53.90789000
186.63999887	86.25141000
186.67999887	111.41090000
186.71999887	127.57960000
186.75999886	138.36480000
186.79999886	158.12860000
186.83999886	170.70830000
186.87999886	168.91380000
186.91999886	149.14400000
186.95999886	138.36480000
186.99999886	132.97520000
187.03999886	129.38020000
187.07999886	118.59490000
187.11999886	106.01520000
187.15999886	98.83114000
187.19999886	93.44157000
187.23999886	88.04590000
187.27999886	79.06125000
187.31999886	70.07660000
187.35999886	57.50298000
187.39999886	48.51222000
187.43999886	37.73308000
187.47999886	23.35887000
187.51999886	7.18405700
187.55999886	-7.18405700
187.59999886	-16.16870000
187.63999886	-23.35887000
187.67999886	-28.74844000
187.71999886	-35.93859000
187.75999886	-43.12265000
187.79999886	-50.31281000
187.83999886	-53.90789000
187.87999886	-62.89254000
187.91999886	-73.67168000
187.95999886	-86.25141000
187.99999886	-93.44157000
188.03999886	-100.62560000
188.07999886	-107.81580000
188.11999886	-115.00600000
188.15999886	-113.20540000
188.19999886	-115.00600000
188.23999886	-104.22070000
188.27999886	-98.83114000
188.31999886	-93.44157000
188.35999886	-93.44157000
188.39999886	-88.04590000
188.43999885	-86.25141000
188.47999885	-86.25141000
188.51999885	-86.25141000
188.55999885	-82.65633000
188.59999885	-79.06125000
188.63999885	-71.87719000
188.67999885	-68.28211000
188.71999885	-61.09195000
188.75999885	-55.70238000
188.79999885	-50.31281000
188.83999885	-41.32816000
188.87999885	-30.54292000
188.91999885	-16.16870000
188.95999885	-1.79448800
188.99999885	16.16870000
189.03999885	34.13800000
189.07999885	50.31281000
189.11999885	66.48762000
189.15999885	82.65633000
189.19999885	97.03055000
189.23999885	111.41090000
189.27999885	122.19000000
189.31999885	134.76970000
189.35999885	141.95990000
189.39999885	147.34950000
189.43999885	147.34950000
189.47999885	143.75440000
189.51999885	136.56420000
189.55999885	129.38020000
189.59999885	120.39550000
189.63999885	115.00600000
189.67999885	107.81580000
189.71999885	104.22070000
189.75999885	100.62560000
189.79999885	93.44157000
189.83999885	88.04590000
189.87999885	80.86184000
189.91999885	71.87719000
189.95999885	62.89254000
189.99999885	52.10730000
190.03999885	41.32816000
190.07999884	30.54292000
190.11999884	19.76379000
190.15999884	7.18405700
190.19999884	-3.58897700
190.23999884	-16.16870000
190.27999884	-26.95395000
190.31999884	-37.73308000
190.35999884	-48.51222000
190.39999884	-59.29746000
190.43999884	-68.28211000
190.47999884	-79.06125000
190.51999884	-86.25141000
190.55999884	-93.44157000
190.59999884	-100.62560000
190.63999884	-106.01520000
190.67999884	-109.61030000
190.71999884	-113.20540000
190.75999884	-116.80040000
190.79999884	-115.00600000
190.83999884	-115.00600000
190.87999884	-102.42620000
190.91999884	-97.03055000
190.95999884	-86.25141000
190.99999884	-84.45692000
191.03999884	-79.06125000
191.07999884	-73.67168000
191.11999884	-80.86184000
191.15999884	-79.06125000
191.19999884	-66.48762000
191.23999884	-61.09195000
191.27999884	-66.48762000
191.31999884	-62.89254000
191.35999884	-57.50298000
191.39999884	-48.51222000
191.43999884	-43.12265000
191.47999884	-34.13800000
191.51999884	-17.96930000
191.55999884	-1.79448800
191.59999884	14.37422000
191.63999884	34.13800000
191.67999884	52.10730000
191.71999883	70.07660000
191.75999883	84.45692000
191.79999883	100.62560000
191.83999883	116.80040000
191.87999883	127.57960000
191.91999883	136.56420000
191.95999883	145.54890000
191.99999883	149.14400000
192.03999883	149.14400000
192.07999883	143.75440000
192.11999883	136.56420000
192.15999883	129.38020000
192.19999883	122.19000000
192.23999883	113.20540000
192.27999883	107.81580000
192.31999883	100.62560000
192.35999883	97.03055000
192.39999883	89.84650000
192.43999883	84.45692000
192.47999883	77.26676000
192.51999883	68.28211000
192.55999883	61.09195000
192.59999883	53.90789000
192.63999883	41.32816000
192.67999883	28.74844000
192.71999883	19.76379000
192.75999883	7.18405700
192.79999883	-7.18405700
192.83999883	-21.55827000
192.87999883	-32.34352000
192.91999883	-43.12265000
192.95999883	-53.90789000
192.99999883	-64.68703000
193.03999883	-71.87719000
193.07999883	-80.86184000
193.11999883	-88.04590000
193.15999883	-95.23605000
193.19999883	-100.62560000
193.23999883	-106.01520000
193.27999883	-111.41090000
193.31999883	-115.00600000
193.35999882	-116.80040000
193.39999882	-118.59490000
193.43999882	-118.59490000
193.47999882	-116.80040000
193.51999882	-115.00600000
193.55999882	-111.41090000
193.59999882	-107.81580000
193.63999882	-100.62560000
193.67999882	-95.23605000
193.71999882	-89.84650000
193.75999882	-82.65633000
193.79999882	-75.47227000
193.83999882	-68.28211000
193.87999882	-61.09195000
193.91999882	-52.10730000
193.95999882	-43.12265000
193.99999882	-32.34352000
194.03999882	-23.35887000
194.07999882	-10.77914000
194.11999882	-1.79448800
194.15999882	10.77914000
194.19999882	21.55827000
194.23999882	32.34352000
194.27999882	43.12265000
194.31999882	55.70238000
194.35999882	64.68703000
194.39999882	77.26676000
194.43999882	86.25141000
194.47999882	97.03055000
194.51999882	107.81580000
194.55999882	118.59490000
194.59999882	127.57960000
194.63999882	136.56420000
194.67999882	140.15930000
194.71999882	141.95990000
194.75999882	140.15930000
194.79999882	136.56420000
194.83999882	129.38020000
194.87999882	120.39550000
194.91999882	113.20540000
194.95999882	102.42620000
194.99999881	93.44157000
195.03999881	82.65633000
195.07999881	73.67168000
195.11999881	62.89254000
195.15999881	53.90789000
195.19999881	43.12265000
195.23999881	34.13800000
195.27999881	23.35887000
195.31999881	12.57363000
195.35999881	5.38956800
195.39999881	1.79448800
195.43999881	8.98464900
195.47999881	7.18405700
195.51999881	-12.57363000
195.55999881	-43.12265000
195.59999881	-59.29746000
195.63999881	-75.47227000
195.67999881	-107.81580000
195.71999881	-134.76970000
195.75999881	-147.34950000
195.79999881	-140.15930000
195.83999881	-125.78510000
195.87999881	-116.80040000
195.91999881	-116.80040000
195.95999881	-115.00600000
195.99999881	-106.01520000
196.03999881	-97.03055000
196.07999881	-93.44157000
196.11999881	-93.44157000
196.15999881	-89.84650000
196.19999881	-79.06125000
196.23999881	-75.47227000
196.27999881	-73.67168000
196.31999881	-75.47227000
196.35999881	-73.67168000
196.39999881	-68.28211000
196.43999881	-64.68703000
196.47999881	-62.89254000
196.51999881	-66.48762000
196.55999881	-61.09195000
196.59999881	-62.89254000
196.63999880	-57.50298000
196.67999880	-55.70238000
196.71999880	-44.92325000
196.75999880	-32.34352000
196.79999880	-12.57363000
196.83999880	14.37422000
196.87999880	35.93859000
196.91999880	59.29746000
196.95999880	80.86184000
196.99999880	104.22070000
197.03999880	125.78510000
197.07999880	140.15930000
197.11999880	145.54890000
197.15999880	152.73900000
197.19999880	152.73900000
197.23999880	150.94450000
197.27999880	145.54890000
197.31999880	136.56420000
197.35999880	131.17470000
197.39999880	125.78510000
197.43999880	116.80040000
197.47999880	107.81580000
197.51999880	98.83114000
197.55999880	89.84650000
197.59999880	80.86184000
197.63999880	71.87719000
197.67999880	62.89254000
197.71999880	55.70238000
197.75999880	50.31281000
197.79999880	43.12265000
197.83999880	35.93859000
197.87999880	30.54292000
197.91999880	21.55827000
197.95999880	14.37422000
197.99999880	3.58897700
198.03999880	-8.98464900
198.07999880	-21.55827000
198.11999880	-34.13800000
198.15999880	-43.12265000
198.19999880	-53.90789000
198.23999880	-64.68703000
198.27999879	-75.47227000
198.31999879	-84.45692000
198.35999879	-95.23605000
198.39999879	-102.42620000
198.43999879	-109.61030000
198.47999879	-116.80040000
198.51999879	-122.19000000
198.55999879	-123.99060000
198.59999879	-127.57960000
198.63999879	-127.57960000
198.67999879	-127.57960000
198.71999879	-125.78510000
198.75999879	-122.19000000
198.79999879	-116.80040000
198.83999879	-109.61030000
198.87999879	-100.62560000
198.91999879	-91.64098000
198.95999879	-82.65633000
198.99999879	-75.47227000
199.03999879	-66.48762000
199.07999879	-57.50298000
199.11999879	-52.10730000
199.15999879	-43.12265000
199.19999879	-35.93859000
199.23999879	-26.95395000
199.27999879	-17.96930000
199.31999879	-7.18405700
199.35999879	1.79448800
199.39999879	12.57363000
199.43999879	25.15336000
199.47999879	34.13800000
199.51999879	44.92325000
199.55999879	55.70238000
199.59999879	64.68703000
199.63999879	75.47227000
199.67999879	86.25141000
199.71999879	98.83114000
199.75999879	111.41090000
199.79999879	122.19000000
199.83999879	131.17470000
199.87999879	138.36480000
199.91999878	143.75440000
199.95999878	143.75440000
199.99999878	141.95990000
200.03999878	134.76970000
200.07999878	127.57960000
200.11999878	116.80040000
