Time	Channel A
(us)	(mV)

0.00000000	34.13800000
0.04000000	26.95395000
0.08000000	16.16870000
0.12000000	7.18405700
0.16000000	-3.58897700
0.20000000	-14.37422000
0.24000000	-26.95395000
0.28000000	-37.73308000
0.32000000	-48.51222000
0.36000000	-59.29746000
0.40000000	-68.28211000
0.44000000	-79.06125000
0.48000000	-86.25141000
0.52000000	-93.44157000
0.56000000	-97.03055000
0.60000000	-100.62560000
0.64000000	-100.62560000
0.68000000	-100.62560000
0.72000000	-89.84650000
0.76000000	-86.25141000
0.80000000	-79.06125000
0.83999999	-77.26676000
0.87999999	-73.67168000
0.91999999	-73.67168000
0.95999999	-73.67168000
0.99999999	-73.67168000
1.03999999	-75.47227000
1.07999999	-77.26676000
1.11999999	-77.26676000
1.15999999	-75.47227000
1.19999999	-73.67168000
1.23999999	-70.07660000
1.27999999	-64.68703000
1.31999999	-59.29746000
1.35999999	-50.31281000
1.39999999	-39.52757000
1.43999999	-30.54292000
1.47999999	-21.55827000
1.51999999	-7.18405700
1.55999999	5.38956800
1.59999999	17.96930000
1.63999999	32.34352000
1.67999999	48.51222000
1.71999999	62.89254000
1.75999999	77.26676000
1.79999999	93.44157000
1.83999999	107.81580000
1.87999999	122.19000000
1.91999999	136.56420000
1.95999999	147.34950000
1.99999999	150.94450000
2.03999999	150.94450000
2.07999999	143.75440000
2.11999999	134.76970000
2.15999999	122.19000000
2.19999999	113.20540000
2.23999999	100.62560000
2.27999999	89.84650000
2.31999999	79.06125000
2.35999999	66.48762000
2.39999999	55.70238000
2.43999999	44.92325000
2.47999998	34.13800000
2.51999998	25.15336000
2.55999998	16.16870000
2.59999998	7.18405700
2.63999998	-1.79448800
2.67999998	-12.57363000
2.71999998	-23.35887000
2.75999998	-34.13800000
2.79999998	-44.92325000
2.83999998	-55.70238000
2.87999998	-66.48762000
2.91999998	-77.26676000
2.95999998	-86.25141000
2.99999998	-93.44157000
3.03999998	-97.03055000
3.07999998	-95.23605000
3.11999998	-104.22070000
3.15999998	-98.83114000
3.19999998	-80.86184000
3.23999998	-71.87719000
3.27999998	-77.26676000
3.31999998	-73.67168000
3.35999998	-73.67168000
3.39999998	-70.07660000
3.43999998	-73.67168000
3.47999998	-75.47227000
3.51999998	-75.47227000
3.55999998	-79.06125000
3.59999998	-80.86184000
3.63999998	-80.86184000
3.67999998	-77.26676000
3.71999998	-73.67168000
3.75999998	-68.28211000
3.79999998	-57.50298000
3.83999998	-52.10730000
3.87999998	-41.32816000
3.91999998	-34.13800000
3.95999998	-19.76379000
3.99999998	-7.18405700
4.03999998	5.38956800
4.07999998	21.55827000
4.11999997	37.73308000
4.15999997	53.90789000
4.19999997	68.28211000
4.23999997	82.65633000
4.27999997	98.83114000
4.31999997	113.20540000
4.35999997	127.57960000
4.39999997	140.15930000
4.43999997	149.14400000
4.47999997	152.73900000
4.51999997	150.94450000
4.55999997	141.95990000
4.59999997	136.56420000
4.63999997	123.99060000
4.67999997	113.20540000
4.71999997	102.42620000
4.75999997	93.44157000
4.79999997	82.65633000
4.83999997	71.87719000
4.87999997	59.29746000
4.91999997	50.31281000
4.95999997	41.32816000
4.99999997	32.34352000
5.03999997	21.55827000
5.07999997	12.57363000
5.11999997	1.79448800
5.15999997	-8.98464900
5.19999997	-21.55827000
5.23999997	-32.34352000
5.27999997	-43.12265000
5.31999997	-53.90789000
5.35999997	-64.68703000
5.39999997	-75.47227000
5.43999997	-84.45692000
5.47999997	-91.64098000
5.51999997	-95.23605000
5.55999997	-97.03055000
5.59999997	-93.44157000
5.63999997	-88.04590000
5.67999997	-86.25141000
5.71999997	-82.65633000
5.75999996	-79.06125000
5.79999996	-79.06125000
5.83999996	-79.06125000
5.87999996	-77.26676000
5.91999996	-77.26676000
5.95999996	-75.47227000
5.99999996	-75.47227000
6.03999996	-77.26676000
6.07999996	-75.47227000
6.11999996	-75.47227000
6.15999996	-71.87719000
6.19999996	-66.48762000
6.23999996	-61.09195000
6.27999996	-53.90789000
6.31999996	-44.92325000
6.35999996	-39.52757000
6.39999996	-28.74844000
6.43999996	-21.55827000
6.47999996	-8.98464900
6.51999996	5.38956800
6.55999996	17.96930000
6.59999996	34.13800000
6.63999996	50.31281000
6.67999996	64.68703000
6.71999996	79.06125000
6.75999996	97.03055000
6.79999996	113.20540000
6.83999996	125.78510000
6.87999996	140.15930000
6.91999996	149.14400000
6.95999996	154.53350000
6.99999996	152.73900000
7.03999996	145.54890000
7.07999996	134.76970000
7.11999996	125.78510000
7.15999996	116.80040000
7.19999996	104.22070000
7.23999996	95.23605000
7.27999996	86.25141000
7.31999996	75.47227000
7.35999996	64.68703000
7.39999996	53.90789000
7.43999995	44.92325000
7.47999995	34.13800000
7.51999995	23.35887000
7.55999995	14.37422000
7.59999995	5.38956800
7.63999995	-7.18405700
7.67999995	-17.96930000
7.71999995	-30.54292000
7.75999995	-41.32816000
7.79999995	-52.10730000
7.83999995	-64.68703000
7.87999995	-71.87719000
7.91999995	-82.65633000
7.95999995	-89.84650000
7.99999995	-98.83114000
8.03999995	-100.62560000
8.07999995	-97.03055000
8.11999995	-93.44157000
8.15999995	-89.84650000
8.19999995	-89.84650000
8.23999995	-89.84650000
8.27999995	-88.04590000
8.31999995	-88.04590000
8.35999995	-86.25141000
8.39999995	-86.25141000
8.43999995	-82.65633000
8.47999995	-80.86184000
8.51999995	-77.26676000
8.55999995	-71.87719000
8.59999995	-70.07660000
8.63999995	-66.48762000
8.67999995	-61.09195000
8.71999995	-55.70238000
8.75999995	-50.31281000
8.79999995	-44.92325000
8.83999995	-39.52757000
8.87999995	-32.34352000
8.91999995	-23.35887000
8.95999995	-14.37422000
8.99999995	-5.38956800
9.03999995	7.18405700
9.07999994	21.55827000
9.11999994	35.93859000
9.15999994	50.31281000
9.19999994	68.28211000
9.23999994	84.45692000
9.27999994	102.42620000
9.31999994	118.59490000
9.35999994	132.97520000
9.39999994	143.75440000
9.43999994	150.94450000
9.47999994	150.94450000
9.51999994	149.14400000
9.55999994	141.95990000
9.59999994	132.97520000
9.63999994	120.39550000
9.67999994	107.81580000
9.71999994	98.83114000
9.75999994	89.84650000
9.79999994	79.06125000
9.83999994	66.48762000
9.87999994	55.70238000
9.91999994	46.71774000
9.95999994	35.93859000
9.99999994	26.95395000
10.03999994	16.16870000
10.07999994	5.38956800
10.11999994	-3.58897700
10.15999994	-14.37422000
10.19999994	-25.15336000
10.23999994	-37.73308000
10.27999994	-48.51222000
10.31999994	-59.29746000
10.35999994	-68.28211000
10.39999994	-77.26676000
10.43999994	-84.45692000
10.47999994	-89.84650000
10.51999994	-89.84650000
10.55999994	-88.04590000
10.59999994	-84.45692000
10.63999994	-82.65633000
10.67999994	-77.26676000
10.71999993	-75.47227000
10.75999993	-71.87719000
10.79999993	-71.87719000
10.83999993	-71.87719000
10.87999993	-71.87719000
10.91999993	-73.67168000
10.95999993	-75.47227000
10.99999993	-75.47227000
11.03999993	-75.47227000
11.07999993	-73.67168000
11.11999993	-73.67168000
11.15999993	-68.28211000
11.19999993	-64.68703000
11.23999993	-57.50298000
11.27999993	-50.31281000
11.31999993	-43.12265000
11.35999993	-35.93859000
11.39999993	-26.95395000
11.43999993	-16.16870000
11.47999993	-5.38956800
11.51999993	7.18405700
11.55999993	21.55827000
11.59999993	37.73308000
11.63999993	55.70238000
11.67999993	71.87719000
11.71999993	89.84650000
11.75999993	106.01520000
11.79999993	122.19000000
11.83999993	138.36480000
11.87999993	150.94450000
11.91999993	158.12860000
11.95999993	158.12860000
11.99999993	150.94450000
12.03999993	141.95990000
12.07999993	129.38020000
12.11999993	120.39550000
12.15999993	111.41090000
12.19999993	100.62560000
12.23999993	93.44157000
12.27999993	82.65633000
12.31999993	73.67168000
12.35999992	62.89254000
12.39999992	52.10730000
12.43999992	43.12265000
12.47999992	32.34352000
12.51999992	23.35887000
12.55999992	14.37422000
12.59999992	0.00000000
12.63999992	-10.77914000
12.67999992	-23.35887000
12.71999992	-35.93859000
12.75999992	-46.71774000
12.79999992	-57.50298000
12.83999992	-68.28211000
12.87999992	-77.26676000
12.91999992	-80.86184000
12.95999992	-89.84650000
12.99999992	-100.62560000
13.03999992	-89.84650000
13.07999992	-82.65633000
13.11999992	-86.25141000
13.15999992	-88.04590000
13.19999992	-89.84650000
13.23999992	-86.25141000
13.27999992	-84.45692000
13.31999992	-86.25141000
13.35999992	-84.45692000
13.39999992	-82.65633000
13.43999992	-82.65633000
13.47999992	-80.86184000
13.51999992	-79.06125000
13.55999992	-77.26676000
13.59999992	-75.47227000
13.63999992	-68.28211000
13.67999992	-61.09195000
13.71999992	-53.90789000
13.75999992	-48.51222000
13.79999992	-46.71774000
13.83999992	-57.50298000
13.87999992	-59.29746000
13.91999992	-39.52757000
13.95999992	-7.18405700
13.99999991	12.57363000
14.03999991	34.13800000
14.07999991	64.68703000
14.11999991	100.62560000
14.15999991	123.99060000
14.19999991	122.19000000
14.23999991	113.20540000
14.27999991	111.41090000
14.31999991	120.39550000
14.35999991	122.19000000
14.39999991	115.00600000
14.43999991	111.41090000
14.47999991	118.59490000
14.51999991	129.38020000
14.55999991	127.57960000
14.59999991	113.20540000
14.63999991	104.22070000
14.67999991	97.03055000
14.71999991	89.84650000
14.75999991	79.06125000
14.79999991	64.68703000
14.83999991	52.10730000
14.87999991	44.92325000
14.91999991	37.73308000
14.95999991	30.54292000
14.99999991	21.55827000
15.03999991	16.16870000
15.07999991	12.57363000
15.11999991	7.18405700
15.15999991	1.79448800
15.19999991	-8.98464900
15.23999991	-25.15336000
15.27999991	-43.12265000
15.31999991	-57.50298000
15.35999991	-73.67168000
15.39999991	-89.84650000
15.43999991	-104.22070000
15.47999991	-109.61030000
15.51999991	-107.81580000
15.55999991	-104.22070000
15.59999991	-102.42620000
15.63999990	-97.03055000
15.67999990	-91.64098000
15.71999990	-86.25141000
15.75999990	-84.45692000
15.79999990	-84.45692000
15.83999990	-82.65633000
15.87999990	-80.86184000
15.91999990	-79.06125000
15.95999990	-75.47227000
15.99999990	-71.87719000
16.03999990	-71.87719000
16.07999990	-64.68703000
16.11999990	-59.29746000
16.15999990	-55.70238000
16.19999990	-53.90789000
16.23999990	-53.90789000
16.27999990	-52.10730000
16.31999990	-50.31281000
16.35999990	-41.32816000
16.39999990	-32.34352000
16.43999990	-21.55827000
16.47999990	-8.98464900
16.51999990	5.38956800
16.55999990	21.55827000
16.59999990	37.73308000
16.63999990	53.90789000
16.67999990	71.87719000
16.71999990	89.84650000
16.75999990	106.01520000
16.79999990	120.39550000
16.83999990	134.76970000
16.87999990	145.54890000
16.91999990	150.94450000
16.95999990	152.73900000
16.99999990	149.14400000
17.03999990	143.75440000
17.07999990	134.76970000
17.11999990	122.19000000
17.15999990	111.41090000
17.19999990	100.62560000
17.23999990	86.25141000
17.27999989	73.67168000
17.31999989	61.09195000
17.35999989	48.51222000
17.39999989	35.93859000
17.43999989	26.95395000
17.47999989	19.76379000
17.51999989	12.57363000
17.55999989	5.38956800
17.59999989	-1.79448800
17.63999989	-8.98464900
17.67999989	-19.76379000
17.71999989	-30.54292000
17.75999989	-43.12265000
17.79999989	-55.70238000
17.83999989	-68.28211000
17.87999989	-80.86184000
17.91999989	-86.25141000
17.95999989	-88.04590000
17.99999989	-91.64098000
18.03999989	-91.64098000
18.07999989	-91.64098000
18.11999989	-86.25141000
18.15999989	-86.25141000
18.19999989	-80.86184000
18.23999989	-79.06125000
18.27999989	-77.26676000
18.31999989	-79.06125000
18.35999989	-79.06125000
18.39999989	-80.86184000
18.43999989	-80.86184000
18.47999989	-82.65633000
18.51999989	-80.86184000
18.55999989	-79.06125000
18.59999989	-73.67168000
18.63999989	-70.07660000
18.67999989	-64.68703000
18.71999989	-57.50298000
18.75999989	-50.31281000
18.79999989	-43.12265000
18.83999989	-34.13800000
18.87999989	-23.35887000
18.91999989	-14.37422000
18.95999988	-3.58897700
18.99999988	10.77914000
19.03999988	25.15336000
19.07999988	41.32816000
19.11999988	57.50298000
19.15999988	71.87719000
19.19999988	88.04590000
19.23999988	104.22070000
19.27999988	115.00600000
19.31999988	129.38020000
19.35999988	138.36480000
19.39999988	143.75440000
19.43999988	149.14400000
19.47999988	147.34950000
19.51999988	141.95990000
19.55999988	129.38020000
19.59999988	120.39550000
19.63999988	113.20540000
19.67999988	102.42620000
19.71999988	91.64098000
19.75999988	80.86184000
19.79999988	71.87719000
19.83999988	59.29746000
19.87999988	50.31281000
19.91999988	37.73308000
19.95999988	28.74844000
19.99999988	19.76379000
20.03999988	10.77914000
20.07999988	0.00000000
20.11999988	-8.98464900
20.15999988	-21.55827000
20.19999988	-34.13800000
20.23999988	-43.12265000
20.27999988	-55.70238000
20.31999988	-66.48762000
20.35999988	-75.47227000
20.39999988	-84.45692000
20.43999988	-91.64098000
20.47999988	-95.23605000
20.51999988	-97.03055000
20.55999988	-95.23605000
20.59999987	-93.44157000
20.63999987	-88.04590000
20.67999987	-86.25141000
20.71999987	-80.86184000
20.75999987	-80.86184000
20.79999987	-80.86184000
20.83999987	-80.86184000
20.87999987	-79.06125000
20.91999987	-80.86184000
20.95999987	-79.06125000
20.99999987	-77.26676000
21.03999987	-73.67168000
21.07999987	-73.67168000
21.11999987	-68.28211000
21.15999987	-64.68703000
21.19999987	-59.29746000
21.23999987	-52.10730000
21.27999987	-43.12265000
21.31999987	-35.93859000
21.35999987	-28.74844000
21.39999987	-17.96930000
21.43999987	-7.18405700
21.47999987	5.38956800
21.51999987	19.76379000
21.55999987	35.93859000
21.59999987	50.31281000
21.63999987	66.48762000
21.67999987	80.86184000
21.71999987	97.03055000
21.75999987	111.41090000
21.79999987	125.78510000
21.83999987	138.36480000
21.87999987	147.34950000
21.91999987	150.94450000
21.95999987	150.94450000
21.99999987	143.75440000
22.03999987	134.76970000
22.07999987	122.19000000
22.11999987	113.20540000
22.15999987	100.62560000
22.19999987	91.64098000
22.23999986	80.86184000
22.27999986	70.07660000
22.31999986	57.50298000
22.35999986	50.31281000
22.39999986	39.52757000
22.43999986	32.34352000
22.47999986	23.35887000
22.51999986	14.37422000
22.55999986	5.38956800
22.59999986	-5.38956800
22.63999986	-16.16870000
22.67999986	-26.95395000
22.71999986	-39.52757000
22.75999986	-48.51222000
22.79999986	-62.89254000
22.83999986	-82.65633000
22.87999986	-82.65633000
22.91999986	-84.45692000
22.95999986	-97.03055000
22.99999986	-106.01520000
23.03999986	-107.81580000
23.07999986	-102.42620000
23.11999986	-91.64098000
23.15999986	-86.25141000
23.19999986	-73.67168000
23.23999986	-71.87719000
23.27999986	-71.87719000
23.31999986	-71.87719000
23.35999986	-71.87719000
23.39999986	-71.87719000
23.43999986	-75.47227000
23.47999986	-75.47227000
23.51999986	-73.67168000
23.55999986	-75.47227000
23.59999986	-73.67168000
23.63999986	-71.87719000
23.67999986	-66.48762000
23.71999986	-59.29746000
23.75999986	-50.31281000
23.79999986	-41.32816000
23.83999986	-30.54292000
23.87999985	-21.55827000
23.91999985	-10.77914000
23.95999985	0.00000000
23.99999985	14.37422000
24.03999985	30.54292000
24.07999985	46.71774000
24.11999985	61.09195000
24.15999985	77.26676000
24.19999985	93.44157000
24.23999985	106.01520000
24.27999985	118.59490000
24.31999985	136.56420000
24.35999985	147.34950000
24.39999985	152.73900000
24.43999985	154.53350000
24.47999985	149.14400000
24.51999985	140.15930000
24.55999985	129.38020000
24.59999985	115.00600000
24.63999985	106.01520000
24.67999985	95.23605000
24.71999985	84.45692000
24.75999985	71.87719000
24.79999985	59.29746000
24.83999985	48.51222000
24.87999985	39.52757000
24.91999985	30.54292000
24.95999985	21.55827000
24.99999985	14.37422000
25.03999985	5.38956800
25.07999985	-5.38956800
25.11999985	-16.16870000
25.15999985	-28.74844000
25.19999985	-39.52757000
25.23999985	-50.31281000
25.27999985	-59.29746000
25.31999985	-70.07660000
25.35999985	-80.86184000
25.39999985	-89.84650000
25.43999985	-95.23605000
25.47999985	-98.83114000
25.51999984	-100.62560000
25.55999984	-95.23605000
25.59999984	-91.64098000
25.63999984	-86.25141000
25.67999984	-80.86184000
25.71999984	-77.26676000
25.75999984	-73.67168000
25.79999984	-71.87719000
25.83999984	-71.87719000
25.87999984	-71.87719000
25.91999984	-71.87719000
25.95999984	-73.67168000
25.99999984	-73.67168000
26.03999984	-73.67168000
26.07999984	-71.87719000
26.11999984	-68.28211000
26.15999984	-62.89254000
26.19999984	-57.50298000
26.23999984	-50.31281000
26.27999984	-43.12265000
26.31999984	-32.34352000
26.35999984	-23.35887000
26.39999984	-12.57363000
26.43999984	0.00000000
26.47999984	12.57363000
26.51999984	28.74844000
26.55999984	43.12265000
26.59999984	57.50298000
26.63999984	73.67168000
26.67999984	91.64098000
26.71999984	107.81580000
26.75999984	122.19000000
26.79999984	136.56420000
26.83999984	149.14400000
26.87999984	154.53350000
26.91999984	156.33410000
26.95999984	149.14400000
26.99999984	140.15930000
27.03999984	127.57960000
27.07999984	116.80040000
27.11999984	106.01520000
27.15999983	95.23605000
27.19999983	84.45692000
27.23999983	71.87719000
27.27999983	62.89254000
27.31999983	50.31281000
27.35999983	41.32816000
27.39999983	32.34352000
27.43999983	23.35887000
27.47999983	14.37422000
27.51999983	5.38956800
27.55999983	-5.38956800
27.59999983	-17.96930000
27.63999983	-28.74844000
27.67999983	-43.12265000
27.71999983	-55.70238000
27.75999983	-64.68703000
27.79999983	-71.87719000
27.83999983	-80.86184000
27.87999983	-88.04590000
27.91999983	-95.23605000
27.95999983	-98.83114000
27.99999983	-97.03055000
28.03999983	-91.64098000
28.07999983	-88.04590000
28.11999983	-86.25141000
28.15999983	-84.45692000
28.19999983	-82.65633000
28.23999983	-82.65633000
28.27999983	-82.65633000
28.31999983	-82.65633000
28.35999983	-82.65633000
28.39999983	-80.86184000
28.43999983	-79.06125000
28.47999983	-79.06125000
28.51999983	-79.06125000
28.55999983	-73.67168000
28.59999983	-70.07660000
28.63999983	-62.89254000
28.67999983	-55.70238000
28.71999983	-46.71774000
28.75999983	-39.52757000
28.79999982	-28.74844000
28.83999982	-21.55827000
28.87999982	-8.98464900
28.91999982	3.58897700
28.95999982	16.16870000
28.99999982	32.34352000
29.03999982	46.71774000
29.07999982	59.29746000
29.11999982	71.87719000
29.15999982	84.45692000
29.19999982	98.83114000
29.23999982	113.20540000
29.27999982	127.57960000
29.31999982	138.36480000
29.35999982	143.75440000
29.39999982	143.75440000
29.43999982	143.75440000
29.47999982	140.15930000
29.51999982	131.17470000
29.55999982	120.39550000
29.59999982	111.41090000
29.63999982	100.62560000
29.67999982	88.04590000
29.71999982	77.26676000
29.75999982	64.68703000
29.79999982	53.90789000
29.83999982	46.71774000
29.87999982	34.13800000
29.91999982	23.35887000
29.95999982	16.16870000
29.99999982	5.38956800
30.03999982	-3.58897700
30.07999982	-12.57363000
30.11999982	-25.15336000
30.15999982	-34.13800000
30.19999982	-46.71774000
30.23999982	-57.50298000
30.27999982	-68.28211000
30.31999982	-79.06125000
30.35999982	-88.04590000
30.39999982	-95.23605000
30.43999982	-97.03055000
30.47999981	-98.83114000
30.51999981	-95.23605000
30.55999981	-89.84650000
30.59999981	-82.65633000
30.63999981	-80.86184000
30.67999981	-79.06125000
30.71999981	-77.26676000
30.75999981	-77.26676000
30.79999981	-77.26676000
30.83999981	-79.06125000
30.87999981	-79.06125000
30.91999981	-79.06125000
30.95999981	-79.06125000
30.99999981	-79.06125000
31.03999981	-77.26676000
31.07999981	-71.87719000
31.11999981	-66.48762000
31.15999981	-59.29746000
31.19999981	-52.10730000
31.23999981	-43.12265000
31.27999981	-34.13800000
31.31999981	-25.15336000
31.35999981	-14.37422000
31.39999981	-3.58897700
31.43999981	8.98464900
31.47999981	23.35887000
31.51999981	39.52757000
31.55999981	53.90789000
31.59999981	70.07660000
31.63999981	84.45692000
31.67999981	100.62560000
31.71999981	115.00600000
31.75999981	129.38020000
31.79999981	141.95990000
31.83999981	150.94450000
31.87999981	154.53350000
31.91999981	150.94450000
31.95999981	143.75440000
31.99999981	134.76970000
32.03999981	122.19000000
32.07999981	111.41090000
32.11999980	100.62560000
32.15999980	89.84650000
32.19999980	79.06125000
32.23999980	66.48762000
32.27999980	57.50298000
32.31999980	46.71774000
32.35999980	37.73308000
32.39999980	28.74844000
32.43999980	19.76379000
32.47999980	12.57363000
32.51999980	1.79448800
32.55999980	-7.18405700
32.59999980	-16.16870000
32.63999980	-28.74844000
32.67999980	-52.10730000
32.71999980	-55.70238000
32.75999980	-59.29746000
32.79999980	-71.87719000
32.83999980	-88.04590000
32.87999980	-95.23605000
32.91999980	-102.42620000
32.95999980	-113.20540000
32.99999980	-140.15930000
33.03999980	-136.56420000
33.07999980	-115.00600000
33.11999980	-98.83114000
33.15999980	-93.44157000
33.19999980	-71.87719000
33.23999980	-48.51222000
33.27999980	-26.95395000
33.31999980	-23.35887000
33.35999980	-41.32816000
33.39999980	-59.29746000
33.43999980	-68.28211000
33.47999980	-71.87719000
33.51999980	-82.65633000
33.55999980	-93.44157000
33.59999980	-91.64098000
33.63999980	-79.06125000
33.67999980	-62.89254000
33.71999980	-55.70238000
33.75999979	-53.90789000
33.79999979	-43.12265000
33.83999979	-28.74844000
33.87999979	-12.57363000
33.91999979	0.00000000
33.95999979	10.77914000
33.99999979	25.15336000
34.03999979	46.71774000
34.07999979	62.89254000
34.11999979	75.47227000
34.15999979	93.44157000
34.19999979	113.20540000
34.23999979	131.17470000
34.27999979	147.34950000
34.31999979	156.33410000
34.35999979	159.92920000
34.39999979	156.33410000
34.43999979	145.54890000
34.47999979	136.56420000
34.51999979	122.19000000
34.55999979	106.01520000
34.59999979	91.64098000
34.63999979	80.86184000
34.67999979	71.87719000
34.71999979	64.68703000
34.75999979	55.70238000
34.79999979	48.51222000
34.83999979	39.52757000
34.87999979	28.74844000
34.91999979	19.76379000
34.95999979	7.18405700
34.99999979	0.00000000
35.03999979	-8.98464900
35.07999979	-16.16870000
35.11999979	-23.35887000
35.15999979	-32.34352000
35.19999979	-43.12265000
35.23999979	-52.10730000
35.27999979	-62.89254000
35.31999979	-73.67168000
35.35999979	-86.25141000
35.39999978	-95.23605000
35.43999978	-102.42620000
35.47999978	-104.22070000
35.51999978	-100.62560000
35.55999978	-97.03055000
35.59999978	-91.64098000
35.63999978	-88.04590000
35.67999978	-84.45692000
35.71999978	-82.65633000
35.75999978	-80.86184000
35.79999978	-79.06125000
35.83999978	-75.47227000
35.87999978	-75.47227000
35.91999978	-75.47227000
35.95999978	-75.47227000
35.99999978	-73.67168000
36.03999978	-71.87719000
36.07999978	-70.07660000
36.11999978	-64.68703000
36.15999978	-57.50298000
36.19999978	-50.31281000
36.23999978	-39.52757000
36.27999978	-30.54292000
36.31999978	-21.55827000
36.35999978	-12.57363000
36.39999978	-1.79448800
36.43999978	8.98464900
36.47999978	21.55827000
36.51999978	35.93859000
36.55999978	50.31281000
36.59999978	66.48762000
36.63999978	84.45692000
36.67999978	102.42620000
36.71999978	118.59490000
36.75999978	136.56420000
36.79999978	149.14400000
36.83999978	156.33410000
36.87999978	158.12860000
36.91999978	152.73900000
36.95999978	143.75440000
36.99999978	132.97520000
37.03999977	120.39550000
37.07999977	107.81580000
37.11999977	97.03055000
37.15999977	84.45692000
37.19999977	73.67168000
37.23999977	61.09195000
37.27999977	50.31281000
37.31999977	39.52757000
37.35999977	30.54292000
37.39999977	21.55827000
37.43999977	12.57363000
37.47999977	3.58897700
37.51999977	-7.18405700
37.55999977	-21.55827000
37.59999977	-30.54292000
37.63999977	-35.93859000
37.67999977	-46.71774000
37.71999977	-59.29746000
37.75999977	-70.07660000
37.79999977	-79.06125000
37.83999977	-86.25141000
37.87999977	-91.64098000
37.91999977	-97.03055000
37.95999977	-100.62560000
37.99999977	-100.62560000
38.03999977	-98.83114000
38.07999977	-89.84650000
38.11999977	-86.25141000
38.15999977	-75.47227000
38.19999977	-75.47227000
38.23999977	-71.87719000
38.27999977	-71.87719000
38.31999977	-71.87719000
38.35999977	-71.87719000
38.39999977	-73.67168000
38.43999977	-73.67168000
38.47999977	-71.87719000
38.51999977	-71.87719000
38.55999977	-70.07660000
38.59999977	-64.68703000
38.63999977	-61.09195000
38.67999976	-52.10730000
38.71999976	-43.12265000
38.75999976	-34.13800000
38.79999976	-23.35887000
38.83999976	-12.57363000
38.87999976	0.00000000
38.91999976	14.37422000
38.95999976	26.95395000
38.99999976	41.32816000
39.03999976	55.70238000
39.07999976	70.07660000
39.11999976	84.45692000
39.15999976	102.42620000
39.19999976	116.80040000
39.23999976	131.17470000
39.27999976	143.75440000
39.31999976	150.94450000
39.35999976	152.73900000
39.39999976	149.14400000
39.43999976	140.15930000
39.47999976	129.38020000
39.51999976	118.59490000
39.55999976	107.81580000
39.59999976	93.44157000
39.63999976	84.45692000
39.67999976	71.87719000
39.71999976	61.09195000
39.75999976	50.31281000
39.79999976	41.32816000
39.83999976	30.54292000
39.87999976	21.55827000
39.91999976	14.37422000
39.95999976	5.38956800
39.99999976	-3.58897700
40.03999976	-14.37422000
40.07999976	-26.95395000
40.11999976	-39.52757000
40.15999976	-50.31281000
40.19999976	-61.09195000
40.23999976	-71.87719000
40.27999976	-80.86184000
40.31999975	-89.84650000
40.35999975	-95.23605000
40.39999975	-100.62560000
40.43999975	-98.83114000
40.47999975	-97.03055000
40.51999975	-89.84650000
40.55999975	-86.25141000
40.59999975	-82.65633000
40.63999975	-80.86184000
40.67999975	-79.06125000
40.71999975	-79.06125000
40.75999975	-79.06125000
40.79999975	-77.26676000
40.83999975	-77.26676000
40.87999975	-79.06125000
40.91999975	-77.26676000
40.95999975	-77.26676000
40.99999975	-73.67168000
41.03999975	-71.87719000
41.07999975	-64.68703000
41.11999975	-61.09195000
41.15999975	-52.10730000
41.19999975	-44.92325000
41.23999975	-34.13800000
41.27999975	-25.15336000
41.31999975	-12.57363000
41.35999975	0.00000000
41.39999975	14.37422000
41.43999975	28.74844000
41.47999975	43.12265000
41.51999975	57.50298000
41.55999975	71.87719000
41.59999975	86.25141000
41.63999975	100.62560000
41.67999975	115.00600000
41.71999975	127.57960000
41.75999975	138.36480000
41.79999975	145.54890000
41.83999975	149.14400000
41.87999975	147.34950000
41.91999975	141.95990000
41.95999974	131.17470000
41.99999974	120.39550000
42.03999974	111.41090000
42.07999974	98.83114000
42.11999974	86.25141000
42.15999974	75.47227000
42.19999974	64.68703000
42.23999974	52.10730000
42.27999974	41.32816000
42.31999974	32.34352000
42.35999974	23.35887000
42.39999974	14.37422000
42.43999974	7.18405700
42.47999974	-1.79448800
42.51999974	-25.15336000
42.55999974	-28.74844000
42.59999974	-28.74844000
42.63999974	-43.12265000
42.67999974	-61.09195000
42.71999974	-71.87719000
42.75999974	-80.86184000
42.79999974	-86.25141000
42.83999974	-95.23605000
42.87999974	-98.83114000
42.91999974	-97.03055000
42.95999974	-97.03055000
42.99999974	-95.23605000
43.03999974	-89.84650000
43.07999974	-88.04590000
43.11999974	-84.45692000
43.15999974	-82.65633000
43.19999974	-79.06125000
43.23999974	-77.26676000
43.27999974	-77.26676000
43.31999974	-77.26676000
43.35999974	-77.26676000
43.39999974	-77.26676000
43.43999974	-75.47227000
43.47999974	-73.67168000
43.51999974	-70.07660000
43.55999974	-64.68703000
43.59999974	-59.29746000
43.63999973	-52.10730000
43.67999973	-43.12265000
43.71999973	-35.93859000
43.75999973	-25.15336000
43.79999973	-16.16870000
43.83999973	-1.79448800
43.87999973	8.98464900
43.91999973	21.55827000
43.95999973	35.93859000
43.99999973	53.90789000
44.03999973	68.28211000
44.07999973	80.86184000
44.11999973	97.03055000
44.15999973	113.20540000
44.19999973	125.78510000
44.23999973	134.76970000
44.27999973	143.75440000
44.31999973	149.14400000
44.35999973	149.14400000
44.39999973	141.95990000
44.43999973	134.76970000
44.47999973	122.19000000
44.51999973	113.20540000
44.55999973	100.62560000
44.59999973	88.04590000
44.63999973	77.26676000
44.67999973	64.68703000
44.71999973	53.90789000
44.75999973	44.92325000
44.79999973	34.13800000
44.83999973	25.15336000
44.87999973	16.16870000
44.91999973	7.18405700
44.95999973	-1.79448800
44.99999973	-12.57363000
45.03999973	-23.35887000
45.07999973	-35.93859000
45.11999973	-44.92325000
45.15999973	-57.50298000
45.19999973	-68.28211000
45.23999973	-79.06125000
45.27999972	-86.25141000
45.31999972	-93.44157000
45.35999972	-98.83114000
45.39999972	-102.42620000
45.43999972	-100.62560000
45.47999972	-100.62560000
45.51999972	-91.64098000
45.55999972	-88.04590000
45.59999972	-84.45692000
45.63999972	-82.65633000
45.67999972	-80.86184000
45.71999972	-79.06125000
45.75999972	-79.06125000
45.79999972	-79.06125000
45.83999972	-79.06125000
45.87999972	-79.06125000
45.91999972	-79.06125000
45.95999972	-77.26676000
45.99999972	-73.67168000
46.03999972	-70.07660000
46.07999972	-64.68703000
46.11999972	-55.70238000
46.15999972	-46.71774000
46.19999972	-37.73308000
46.23999972	-28.74844000
46.27999972	-19.76379000
46.31999972	-7.18405700
46.35999972	5.38956800
46.39999972	19.76379000
46.43999972	35.93859000
46.47999972	50.31281000
46.51999972	64.68703000
46.55999972	77.26676000
46.59999972	91.64098000
46.63999972	106.01520000
46.67999972	120.39550000
46.71999972	134.76970000
46.75999972	141.95990000
46.79999972	147.34950000
46.83999972	147.34950000
46.87999972	143.75440000
46.91999971	136.56420000
46.95999971	123.99060000
46.99999971	115.00600000
47.03999971	102.42620000
47.07999971	91.64098000
47.11999971	79.06125000
47.15999971	66.48762000
47.19999971	55.70238000
47.23999971	44.92325000
47.27999971	35.93859000
47.31999971	25.15336000
47.35999971	16.16870000
47.39999971	3.58897700
47.43999971	-1.79448800
47.47999971	-8.98464900
47.51999971	-17.96930000
47.55999971	-30.54292000
47.59999971	-43.12265000
47.63999971	-53.90789000
47.67999971	-64.68703000
47.71999971	-73.67168000
47.75999971	-84.45692000
47.79999971	-91.64098000
47.83999971	-97.03055000
47.87999971	-100.62560000
47.91999971	-97.03055000
47.95999971	-97.03055000
47.99999971	-88.04590000
48.03999971	-86.25141000
48.07999971	-80.86184000
48.11999971	-79.06125000
48.15999971	-79.06125000
48.19999971	-79.06125000
48.23999971	-79.06125000
48.27999971	-79.06125000
48.31999971	-77.26676000
48.35999971	-77.26676000
48.39999971	-73.67168000
48.43999971	-73.67168000
48.47999971	-71.87719000
48.51999971	-71.87719000
48.55999970	-64.68703000
48.59999970	-59.29746000
48.63999970	-50.31281000
48.67999970	-41.32816000
48.71999970	-30.54292000
48.75999970	-21.55827000
48.79999970	-10.77914000
48.83999970	1.79448800
48.87999970	14.37422000
48.91999970	30.54292000
48.95999970	48.51222000
48.99999970	64.68703000
49.03999970	79.06125000
49.07999970	93.44157000
49.11999970	107.81580000
49.15999970	122.19000000
49.19999970	134.76970000
49.23999970	143.75440000
49.27999970	150.94450000
49.31999970	150.94450000
49.35999970	147.34950000
49.39999970	138.36480000
49.43999970	127.57960000
49.47999970	116.80040000
49.51999970	106.01520000
49.55999970	95.23605000
49.59999970	82.65633000
49.63999970	71.87719000
49.67999970	59.29746000
49.71999970	48.51222000
49.75999970	37.73308000
49.79999970	28.74844000
49.83999970	19.76379000
49.87999970	10.77914000
49.91999970	1.79448800
49.95999970	-8.98464900
49.99999970	-19.76379000
50.03999970	-30.54292000
50.07999970	-41.32816000
50.11999970	-52.10730000
50.15999970	-62.89254000
50.19999969	-71.87719000
50.23999969	-82.65633000
50.27999969	-89.84650000
50.31999969	-97.03055000
50.35999969	-100.62560000
50.39999969	-102.42620000
50.43999969	-102.42620000
50.47999969	-97.03055000
50.51999969	-89.84650000
50.55999969	-86.25141000
50.59999969	-84.45692000
50.63999969	-79.06125000
50.67999969	-79.06125000
50.71999969	-77.26676000
50.75999969	-77.26676000
50.79999969	-75.47227000
50.83999969	-75.47227000
50.87999969	-75.47227000
50.91999969	-73.67168000
50.95999969	-71.87719000
50.99999969	-68.28211000
51.03999969	-64.68703000
51.07999969	-57.50298000
51.11999969	-50.31281000
51.15999969	-41.32816000
51.19999969	-32.34352000
51.23999969	-21.55827000
51.27999969	-10.77914000
51.31999969	0.00000000
51.35999969	12.57363000
51.39999969	28.74844000
51.43999969	43.12265000
51.47999969	57.50298000
51.51999969	71.87719000
51.55999969	86.25141000
51.59999969	102.42620000
51.63999969	115.00600000
51.67999969	129.38020000
51.71999969	141.95990000
51.75999969	147.34950000
51.79999969	150.94450000
51.83999968	147.34950000
51.87999968	138.36480000
51.91999968	129.38020000
51.95999968	118.59490000
51.99999968	107.81580000
52.03999968	97.03055000
52.07999968	86.25141000
52.11999968	73.67168000
52.15999968	61.09195000
52.19999968	50.31281000
52.23999968	39.52757000
52.27999968	32.34352000
52.31999968	26.95395000
52.35999968	5.38956800
52.39999968	-3.58897700
52.43999968	-1.79448800
52.47999968	-10.77914000
52.51999968	-30.54292000
52.55999968	-43.12265000
52.59999968	-53.90789000
52.63999968	-57.50298000
52.67999968	-71.87719000
52.71999968	-82.65633000
52.75999968	-88.04590000
52.79999968	-93.44157000
52.83999968	-100.62560000
52.87999968	-97.03055000
52.91999968	-93.44157000
52.95999968	-88.04590000
52.99999968	-88.04590000
53.03999968	-82.65633000
53.07999968	-79.06125000
53.11999968	-77.26676000
53.15999968	-79.06125000
53.19999968	-77.26676000
53.23999968	-77.26676000
53.27999968	-77.26676000
53.31999968	-79.06125000
53.35999968	-79.06125000
53.39999968	-77.26676000
53.43999968	-75.47227000
53.47999967	-71.87719000
53.51999967	-64.68703000
53.55999967	-57.50298000
53.59999967	-50.31281000
53.63999967	-41.32816000
53.67999967	-34.13800000
53.71999967	-21.55827000
53.75999967	-12.57363000
53.79999967	-3.58897700
53.83999967	10.77914000
53.87999967	26.95395000
53.91999967	41.32816000
53.95999967	53.90789000
53.99999967	70.07660000
54.03999967	86.25141000
54.07999967	104.22070000
54.11999967	118.59490000
54.15999967	132.97520000
54.19999967	145.54890000
54.23999967	154.53350000
54.27999967	156.33410000
54.31999967	150.94450000
54.35999967	143.75440000
54.39999967	131.17470000
54.43999967	120.39550000
54.47999967	109.61030000
54.51999967	98.83114000
54.55999967	86.25141000
54.59999967	75.47227000
54.63999967	64.68703000
54.67999967	50.31281000
54.71999967	32.34352000
54.75999967	14.37422000
54.79999967	3.58897700
54.83999967	-1.79448800
54.87999967	-1.79448800
54.91999967	0.00000000
54.95999967	0.00000000
54.99999967	0.00000000
55.03999967	0.00000000
55.07999967	-8.98464900
55.11999967	-26.95395000
55.15999966	-50.31281000
55.19999966	-71.87719000
55.23999966	-88.04590000
55.27999966	-100.62560000
55.31999966	-111.41090000
55.35999966	-111.41090000
55.39999966	-109.61030000
55.43999966	-100.62560000
55.47999966	-97.03055000
55.51999966	-93.44157000
55.55999966	-95.23605000
55.59999966	-95.23605000
55.63999966	-93.44157000
55.67999966	-91.64098000
55.71999966	-89.84650000
55.75999966	-91.64098000
55.79999966	-86.25141000
55.83999966	-80.86184000
55.87999966	-73.67168000
55.91999966	-68.28211000
55.95999966	-61.09195000
55.99999966	-50.31281000
56.03999966	-41.32816000
56.07999966	-34.13800000
56.11999966	-26.95395000
56.15999966	-25.15336000
56.19999966	-19.76379000
56.23999966	-16.16870000
56.27999966	-7.18405700
56.31999966	0.00000000
56.35999966	12.57363000
56.39999966	26.95395000
56.43999966	43.12265000
56.47999966	61.09195000
56.51999966	77.26676000
56.55999966	93.44157000
56.59999966	109.61030000
56.63999966	122.19000000
56.67999966	134.76970000
56.71999966	140.15930000
56.75999966	143.75440000
56.79999965	143.75440000
56.83999965	141.95990000
56.87999965	136.56420000
56.91999965	129.38020000
56.95999965	120.39550000
56.99999965	111.41090000
57.03999965	100.62560000
57.07999965	88.04590000
57.11999965	73.67168000
57.15999965	59.29746000
57.19999965	44.92325000
57.23999965	28.74844000
57.27999965	19.76379000
57.31999965	10.77914000
57.35999965	5.38956800
57.39999965	-5.38956800
57.43999965	-16.16870000
57.47999965	-25.15336000
57.51999965	-35.93859000
57.55999965	-43.12265000
57.59999965	-53.90789000
57.63999965	-64.68703000
57.67999965	-71.87719000
57.71999965	-82.65633000
57.75999965	-89.84650000
57.79999965	-97.03055000
57.83999965	-100.62560000
57.87999965	-98.83114000
57.91999965	-98.83114000
57.95999965	-91.64098000
57.99999965	-86.25141000
58.03999965	-84.45692000
58.07999965	-84.45692000
58.11999965	-80.86184000
58.15999965	-82.65633000
58.19999965	-84.45692000
58.23999965	-86.25141000
58.27999965	-86.25141000
58.31999965	-86.25141000
58.35999965	-86.25141000
58.39999965	-82.65633000
58.43999964	-79.06125000
58.47999964	-71.87719000
58.51999964	-62.89254000
58.55999964	-52.10730000
58.59999964	-43.12265000
58.63999964	-35.93859000
58.67999964	-26.95395000
58.71999964	-16.16870000
58.75999964	-5.38956800
58.79999964	7.18405700
58.83999964	19.76379000
58.87999964	34.13800000
58.91999964	46.71774000
58.95999964	59.29746000
58.99999964	73.67168000
59.03999964	86.25141000
59.07999964	100.62560000
59.11999964	111.41090000
59.15999964	125.78510000
59.19999964	132.97520000
59.23999964	140.15930000
59.27999964	141.95990000
59.31999964	141.95990000
59.35999964	136.56420000
59.39999964	129.38020000
59.43999964	120.39550000
59.47999964	109.61030000
59.51999964	100.62560000
59.55999964	89.84650000
59.59999964	77.26676000
59.63999964	64.68703000
59.67999964	53.90789000
59.71999964	43.12265000
59.75999964	32.34352000
59.79999964	21.55827000
59.83999964	10.77914000
59.87999964	1.79448800
59.91999964	-7.18405700
59.95999964	-17.96930000
59.99999964	-30.54292000
60.03999964	-39.52757000
60.07999963	-52.10730000
60.11999963	-62.89254000
60.15999963	-73.67168000
60.19999963	-82.65633000
60.23999963	-93.44157000
60.27999963	-98.83114000
60.31999963	-100.62560000
60.35999963	-104.22070000
60.39999963	-98.83114000
60.43999963	-93.44157000
60.47999963	-86.25141000
60.51999963	-84.45692000
60.55999963	-79.06125000
60.59999963	-77.26676000
60.63999963	-77.26676000
60.67999963	-77.26676000
60.71999963	-79.06125000
60.75999963	-79.06125000
60.79999963	-79.06125000
60.83999963	-77.26676000
60.87999963	-75.47227000
60.91999963	-73.67168000
60.95999963	-70.07660000
60.99999963	-64.68703000
61.03999963	-57.50298000
61.07999963	-50.31281000
61.11999963	-43.12265000
61.15999963	-35.93859000
61.19999963	-28.74844000
61.23999963	-16.16870000
61.27999963	-7.18405700
61.31999963	7.18405700
61.35999963	21.55827000
61.39999963	35.93859000
61.43999963	52.10730000
61.47999963	68.28211000
61.51999963	86.25141000
61.55999963	102.42620000
61.59999963	118.59490000
61.63999963	134.76970000
61.67999963	147.34950000
61.71999962	156.33410000
61.75999962	156.33410000
61.79999962	150.94450000
61.83999962	141.95990000
61.87999962	129.38020000
61.91999962	120.39550000
61.95999962	109.61030000
61.99999962	98.83114000
62.03999962	88.04590000
62.07999962	77.26676000
62.11999962	68.28211000
62.15999962	59.29746000
62.19999962	35.93859000
62.23999962	28.74844000
62.27999962	28.74844000
62.31999962	21.55827000
62.35999962	5.38956800
62.39999962	-7.18405700
62.43999962	-17.96930000
62.47999962	-25.15336000
62.51999962	-39.52757000
62.55999962	-52.10730000
62.59999962	-61.09195000
62.63999962	-71.87719000
62.67999962	-80.86184000
62.71999962	-88.04590000
62.75999962	-93.44157000
62.79999962	-97.03055000
62.83999962	-98.83114000
62.87999962	-95.23605000
62.91999962	-91.64098000
62.95999962	-89.84650000
62.99999962	-86.25141000
63.03999962	-84.45692000
63.07999962	-84.45692000
63.11999962	-86.25141000
63.15999962	-86.25141000
63.19999962	-84.45692000
63.23999962	-86.25141000
63.27999962	-86.25141000
63.31999962	-86.25141000
63.35999961	-84.45692000
63.39999961	-79.06125000
63.43999961	-73.67168000
63.47999961	-64.68703000
63.51999961	-59.29746000
63.55999961	-53.90789000
63.59999961	-43.12265000
63.63999961	-34.13800000
63.67999961	-25.15336000
63.71999961	-16.16870000
63.75999961	-3.58897700
63.79999961	10.77914000
63.83999961	23.35887000
63.87999961	35.93859000
63.91999961	50.31281000
63.95999961	64.68703000
63.99999961	79.06125000
64.03999961	91.64098000
64.07999961	106.01520000
64.11999961	120.39550000
64.15999961	132.97520000
64.19999961	140.15930000
64.23999961	143.75440000
64.27999961	145.54890000
64.31999961	141.95990000
64.35999961	134.76970000
64.39999961	125.78510000
64.43999961	115.00600000
64.47999961	104.22070000
64.51999961	93.44157000
64.55999961	82.65633000
64.59999961	71.87719000
64.63999961	59.29746000
64.67999961	50.31281000
64.71999961	39.52757000
64.75999961	30.54292000
64.79999961	19.76379000
64.83999961	10.77914000
64.87999961	0.00000000
64.91999961	-8.98464900
64.95999961	-19.76379000
64.99999960	-30.54292000
65.03999960	-39.52757000
65.07999960	-52.10730000
65.11999960	-64.68703000
65.15999960	-73.67168000
65.19999960	-84.45692000
65.23999960	-93.44157000
65.27999960	-98.83114000
65.31999960	-100.62560000
65.35999960	-102.42620000
65.39999960	-95.23605000
65.43999960	-93.44157000
65.47999960	-88.04590000
65.51999960	-86.25141000
65.55999960	-84.45692000
65.59999960	-84.45692000
65.63999960	-82.65633000
65.67999960	-82.65633000
65.71999960	-84.45692000
65.75999960	-82.65633000
65.79999960	-84.45692000
65.83999960	-82.65633000
65.87999960	-80.86184000
65.91999960	-79.06125000
65.95999960	-75.47227000
65.99999960	-66.48762000
66.03999960	-62.89254000
66.07999960	-53.90789000
66.11999960	-44.92325000
66.15999960	-34.13800000
66.19999960	-23.35887000
66.23999960	-12.57363000
66.27999960	0.00000000
66.31999960	16.16870000
66.35999960	30.54292000
66.39999960	44.92325000
66.43999960	61.09195000
66.47999960	75.47227000
66.51999960	88.04590000
66.55999960	102.42620000
66.59999960	116.80040000
66.63999959	127.57960000
66.67999959	136.56420000
66.71999959	143.75440000
66.75999959	145.54890000
66.79999959	143.75440000
66.83999959	138.36480000
66.87999959	131.17470000
66.91999959	122.19000000
66.95999959	111.41090000
66.99999959	100.62560000
67.03999959	89.84650000
67.07999959	73.67168000
67.11999959	64.68703000
67.15999959	55.70238000
67.19999959	50.31281000
67.23999959	37.73308000
67.27999959	26.95395000
67.31999959	16.16870000
67.35999959	7.18405700
67.39999959	0.00000000
67.43999959	-10.77914000
67.47999959	-21.55827000
67.51999959	-32.34352000
67.55999959	-43.12265000
67.59999959	-55.70238000
67.63999959	-66.48762000
67.67999959	-77.26676000
67.71999959	-86.25141000
67.75999959	-95.23605000
67.79999959	-97.03055000
67.83999959	-97.03055000
67.87999959	-97.03055000
67.91999959	-95.23605000
67.95999959	-93.44157000
67.99999959	-89.84650000
68.03999959	-86.25141000
68.07999959	-86.25141000
68.11999959	-80.86184000
68.15999959	-79.06125000
68.19999959	-80.86184000
68.23999959	-80.86184000
68.27999959	-80.86184000
68.31999958	-79.06125000
68.35999958	-79.06125000
68.39999958	-75.47227000
68.43999958	-73.67168000
68.47999958	-70.07660000
68.51999958	-64.68703000
68.55999958	-57.50298000
68.59999958	-50.31281000
68.63999958	-41.32816000
68.67999958	-30.54292000
68.71999958	-19.76379000
68.75999958	-5.38956800
68.79999958	7.18405700
68.83999958	21.55827000
68.87999958	35.93859000
68.91999958	50.31281000
68.95999958	68.28211000
68.99999958	82.65633000
69.03999958	97.03055000
69.07999958	111.41090000
69.11999958	123.99060000
69.15999958	136.56420000
69.19999958	145.54890000
69.23999958	150.94450000
69.27999958	150.94450000
69.31999958	143.75440000
69.35999958	136.56420000
69.39999958	125.78510000
69.43999958	115.00600000
69.47999958	106.01520000
69.51999958	93.44157000
69.55999958	84.45692000
69.59999958	73.67168000
69.63999958	61.09195000
69.67999958	52.10730000
69.71999958	43.12265000
69.75999958	32.34352000
69.79999958	25.15336000
69.83999958	14.37422000
69.87999958	5.38956800
69.91999958	-3.58897700
69.95999957	-14.37422000
69.99999957	-26.95395000
70.03999957	-39.52757000
70.07999957	-50.31281000
70.11999957	-61.09195000
70.15999957	-71.87719000
70.19999957	-82.65633000
70.23999957	-91.64098000
70.27999957	-98.83114000
70.31999957	-102.42620000
70.35999957	-104.22070000
70.39999957	-100.62560000
70.43999957	-95.23605000
70.47999957	-88.04590000
70.51999957	-84.45692000
70.55999957	-80.86184000
70.59999957	-79.06125000
70.63999957	-79.06125000
70.67999957	-79.06125000
70.71999957	-79.06125000
70.75999957	-79.06125000
70.79999957	-79.06125000
70.83999957	-80.86184000
70.87999957	-79.06125000
70.91999957	-77.26676000
70.95999957	-73.67168000
70.99999957	-66.48762000
71.03999957	-61.09195000
71.07999957	-52.10730000
71.11999957	-43.12265000
71.15999957	-34.13800000
71.19999957	-23.35887000
71.23999957	-10.77914000
71.27999957	0.00000000
71.31999957	14.37422000
71.35999957	28.74844000
71.39999957	44.92325000
71.43999957	61.09195000
71.47999957	75.47227000
71.51999957	89.84650000
71.55999957	104.22070000
71.59999956	118.59490000
71.63999956	131.17470000
71.67999956	141.95990000
71.71999956	149.14400000
71.75999956	150.94450000
71.79999956	147.34950000
71.83999956	141.95990000
71.87999956	131.17470000
71.91999956	118.59490000
71.95999956	111.41090000
71.99999956	104.22070000
72.03999956	84.45692000
72.07999956	68.28211000
72.11999956	70.07660000
72.15999956	62.89254000
72.19999956	44.92325000
72.23999956	34.13800000
72.27999956	25.15336000
72.31999956	21.55827000
72.35999956	10.77914000
72.39999956	-1.79448800
72.43999956	-10.77914000
72.47999956	-21.55827000
72.51999956	-34.13800000
72.55999956	-44.92325000
72.59999956	-55.70238000
72.63999956	-66.48762000
72.67999956	-79.06125000
72.71999956	-88.04590000
72.75999956	-93.44157000
72.79999956	-98.83114000
72.83999956	-104.22070000
72.87999956	-98.83114000
72.91999956	-97.03055000
72.95999956	-89.84650000
72.99999956	-86.25141000
73.03999956	-79.06125000
73.07999956	-75.47227000
73.11999956	-73.67168000
73.15999956	-75.47227000
73.19999956	-75.47227000
73.23999955	-75.47227000
73.27999955	-77.26676000
73.31999955	-77.26676000
73.35999955	-73.67168000
73.39999955	-75.47227000
73.43999955	-75.47227000
73.47999955	-68.28211000
73.51999955	-59.29746000
73.55999955	-53.90789000
73.59999955	-46.71774000
73.63999955	-35.93859000
73.67999955	-25.15336000
73.71999955	-14.37422000
73.75999955	-7.18405700
73.79999955	7.18405700
73.83999955	21.55827000
73.87999955	37.73308000
73.91999955	52.10730000
73.95999955	68.28211000
73.99999955	84.45692000
74.03999955	100.62560000
74.07999955	115.00600000
74.11999955	131.17470000
74.15999955	143.75440000
74.19999955	152.73900000
74.23999955	156.33410000
74.27999955	152.73900000
74.31999955	143.75440000
74.35999955	131.17470000
74.39999955	122.19000000
74.43999955	113.20540000
74.47999955	102.42620000
74.51999955	93.44157000
74.55999955	82.65633000
74.59999955	73.67168000
74.63999955	62.89254000
74.67999955	53.90789000
74.71999955	43.12265000
74.75999955	34.13800000
74.79999955	25.15336000
74.83999955	14.37422000
74.87999954	1.79448800
74.91999954	-8.98464900
74.95999954	-21.55827000
74.99999954	-34.13800000
75.03999954	-44.92325000
75.07999954	-57.50298000
75.11999954	-68.28211000
75.15999954	-77.26676000
75.19999954	-86.25141000
75.23999954	-93.44157000
75.27999954	-98.83114000
75.31999954	-100.62560000
75.35999954	-100.62560000
75.39999954	-98.83114000
75.43999954	-95.23605000
75.47999954	-93.44157000
75.51999954	-88.04590000
75.55999954	-84.45692000
75.59999954	-80.86184000
75.63999954	-80.86184000
75.67999954	-79.06125000
75.71999954	-79.06125000
75.75999954	-79.06125000
75.79999954	-77.26676000
75.83999954	-77.26676000
75.87999954	-73.67168000
75.91999954	-71.87719000
75.95999954	-68.28211000
75.99999954	-61.09195000
76.03999954	-55.70238000
76.07999954	-48.51222000
76.11999954	-39.52757000
76.15999954	-30.54292000
76.19999954	-19.76379000
76.23999954	-8.98464900
76.27999954	1.79448800
76.31999954	16.16870000
76.35999954	30.54292000
76.39999954	44.92325000
76.43999954	59.29746000
76.47999954	73.67168000
76.51999953	88.04590000
76.55999953	104.22070000
76.59999953	116.80040000
76.63999953	129.38020000
76.67999953	140.15930000
76.71999953	147.34950000
76.75999953	149.14400000
76.79999953	143.75440000
76.83999953	136.56420000
76.87999953	127.57960000
76.91999953	113.20540000
76.95999953	104.22070000
76.99999953	95.23605000
77.03999953	88.04590000
77.07999953	75.47227000
77.11999953	64.68703000
77.15999953	52.10730000
77.19999953	43.12265000
77.23999953	32.34352000
77.27999953	23.35887000
77.31999953	14.37422000
77.35999953	5.38956800
77.39999953	-7.18405700
77.43999953	-16.16870000
77.47999953	-28.74844000
77.51999953	-39.52757000
77.55999953	-52.10730000
77.59999953	-62.89254000
77.63999953	-71.87719000
77.67999953	-82.65633000
77.71999953	-89.84650000
77.75999953	-93.44157000
77.79999953	-91.64098000
77.83999953	-73.67168000
77.87999953	-68.28211000
77.91999953	-86.25141000
77.95999953	-98.83114000
77.99999953	-95.23605000
78.03999953	-100.62560000
78.07999953	-122.19000000
78.11999953	-136.56420000
78.15999952	-127.57960000
78.19999952	-107.81580000
78.23999952	-89.84650000
78.27999952	-84.45692000
78.31999952	-80.86184000
78.35999952	-73.67168000
78.39999952	-57.50298000
78.43999952	-52.10730000
78.47999952	-53.90789000
78.51999952	-57.50298000
78.55999952	-46.71774000
78.59999952	-32.34352000
78.63999952	-23.35887000
78.67999952	-17.96930000
78.71999952	-12.57363000
78.75999952	1.79448800
78.79999952	14.37422000
78.83999952	28.74844000
78.87999952	37.73308000
78.91999952	48.51222000
78.95999952	57.50298000
78.99999952	71.87719000
79.03999952	84.45692000
79.07999952	93.44157000
79.11999952	102.42620000
79.15999952	115.00600000
79.19999952	129.38020000
79.23999952	140.15930000
79.27999952	143.75440000
79.31999952	141.95990000
79.35999952	140.15930000
79.39999952	136.56420000
79.43999952	127.57960000
79.47999952	113.20540000
79.51999952	98.83114000
79.55999952	84.45692000
79.59999952	70.07660000
79.63999952	57.50298000
79.67999952	44.92325000
79.71999952	34.13800000
79.75999952	26.95395000
79.79999952	19.76379000
79.83999951	10.77914000
79.87999951	0.00000000
79.91999951	-12.57363000
79.95999951	-25.15336000
79.99999951	-37.73308000
80.03999951	-50.31281000
80.07999951	-64.68703000
80.11999951	-73.67168000
80.15999951	-84.45692000
80.19999951	-89.84650000
80.23999951	-95.23605000
80.27999951	-97.03055000
80.31999951	-100.62560000
80.35999951	-95.23605000
80.39999951	-91.64098000
80.43999951	-86.25141000
80.47999951	-86.25141000
80.51999951	-82.65633000
80.55999951	-82.65633000
80.59999951	-80.86184000
80.63999951	-84.45692000
80.67999951	-84.45692000
80.71999951	-86.25141000
80.75999951	-88.04590000
80.79999951	-88.04590000
80.83999951	-88.04590000
80.87999951	-86.25141000
80.91999951	-82.65633000
80.95999951	-77.26676000
80.99999951	-70.07660000
81.03999951	-61.09195000
81.07999951	-53.90789000
81.11999951	-43.12265000
81.15999951	-32.34352000
81.19999951	-21.55827000
81.23999951	-7.18405700
81.27999951	5.38956800
81.31999951	19.76379000
81.35999951	34.13800000
81.39999951	48.51222000
81.43999951	61.09195000
81.47999950	73.67168000
81.51999950	86.25141000
81.55999950	98.83114000
81.59999950	111.41090000
81.63999950	122.19000000
81.67999950	132.97520000
81.71999950	140.15930000
81.75999950	141.95990000
81.79999950	141.95990000
81.83999950	141.95990000
81.87999950	123.99060000
81.91999950	111.41090000
81.95999950	113.20540000
81.99999950	104.22070000
82.03999950	86.25141000
82.07999950	73.67168000
82.11999950	62.89254000
82.15999950	57.50298000
82.19999950	46.71774000
82.23999950	34.13800000
82.27999950	26.95395000
82.31999950	19.76379000
82.35999950	7.18405700
82.39999950	-1.79448800
82.43999950	-10.77914000
82.47999950	-23.35887000
82.51999950	-35.93859000
82.55999950	-46.71774000
82.59999950	-59.29746000
82.63999950	-71.87719000
82.67999950	-82.65633000
82.71999950	-91.64098000
82.75999950	-98.83114000
82.79999950	-106.01520000
82.83999950	-106.01520000
82.87999950	-107.81580000
82.91999950	-97.03055000
82.95999950	-93.44157000
82.99999950	-86.25141000
83.03999950	-84.45692000
83.07999950	-79.06125000
83.11999949	-79.06125000
83.15999949	-77.26676000
83.19999949	-80.86184000
83.23999949	-82.65633000
83.27999949	-79.06125000
83.31999949	-80.86184000
83.35999949	-80.86184000
83.39999949	-80.86184000
83.43999949	-75.47227000
83.47999949	-70.07660000
83.51999949	-64.68703000
83.55999949	-57.50298000
83.59999949	-48.51222000
83.63999949	-37.73308000
83.67999949	-28.74844000
83.71999949	-16.16870000
83.75999949	-5.38956800
83.79999949	7.18405700
83.83999949	21.55827000
83.87999949	34.13800000
83.91999949	50.31281000
83.95999949	64.68703000
83.99999949	79.06125000
84.03999949	95.23605000
84.07999949	109.61030000
84.11999949	125.78510000
84.15999949	136.56420000
84.19999949	147.34950000
84.23999949	152.73900000
84.27999949	150.94450000
84.31999949	145.54890000
84.35999949	136.56420000
84.39999949	125.78510000
84.43999949	115.00600000
84.47999949	104.22070000
84.51999949	91.64098000
84.55999949	80.86184000
84.59999949	70.07660000
84.63999949	59.29746000
84.67999949	48.51222000
84.71999949	39.52757000
84.75999948	30.54292000
84.79999948	21.55827000
84.83999948	12.57363000
84.87999948	3.58897700
84.91999948	-7.18405700
84.95999948	-17.96930000
84.99999948	-30.54292000
85.03999948	-43.12265000
85.07999948	-53.90789000
85.11999948	-64.68703000
85.15999948	-73.67168000
85.19999948	-84.45692000
85.23999948	-93.44157000
85.27999948	-98.83114000
85.31999948	-102.42620000
85.35999948	-102.42620000
85.39999948	-100.62560000
85.43999948	-95.23605000
85.47999948	-86.25141000
85.51999948	-80.86184000
85.55999948	-77.26676000
85.59999948	-75.47227000
85.63999948	-73.67168000
85.67999948	-73.67168000
85.71999948	-73.67168000
85.75999948	-75.47227000
85.79999948	-77.26676000
85.83999948	-77.26676000
85.87999948	-77.26676000
85.91999948	-73.67168000
85.95999948	-71.87719000
85.99999948	-66.48762000
86.03999948	-59.29746000
86.07999948	-52.10730000
86.11999948	-43.12265000
86.15999948	-32.34352000
86.19999948	-21.55827000
86.23999948	-10.77914000
86.27999948	0.00000000
86.31999948	14.37422000
86.35999948	28.74844000
86.39999947	43.12265000
86.43999947	59.29746000
86.47999947	73.67168000
86.51999947	89.84650000
86.55999947	107.81580000
86.59999947	122.19000000
86.63999947	136.56420000
86.67999947	145.54890000
86.71999947	154.53350000
86.75999947	150.94450000
86.79999947	143.75440000
86.83999947	134.76970000
86.87999947	129.38020000
86.91999947	118.59490000
86.95999947	107.81580000
86.99999947	95.23605000
87.03999947	86.25141000
87.07999947	75.47227000
87.11999947	64.68703000
87.15999947	53.90789000
87.19999947	44.92325000
87.23999947	34.13800000
87.27999947	26.95395000
87.31999947	16.16870000
87.35999947	5.38956800
87.39999947	-7.18405700
87.43999947	-17.96930000
87.47999947	-30.54292000
87.51999947	-41.32816000
87.55999947	-53.90789000
87.59999947	-64.68703000
87.63999947	-73.67168000
87.67999947	-84.45692000
87.71999947	-91.64098000
87.75999947	-97.03055000
87.79999947	-102.42620000
87.83999947	-104.22070000
87.87999947	-102.42620000
87.91999947	-104.22070000
87.95999947	-93.44157000
87.99999947	-91.64098000
88.03999946	-82.65633000
88.07999946	-80.86184000
88.11999946	-79.06125000
88.15999946	-79.06125000
88.19999946	-77.26676000
88.23999946	-75.47227000
88.27999946	-70.07660000
88.31999946	-70.07660000
88.35999946	-68.28211000
88.39999946	-70.07660000
88.43999946	-64.68703000
88.47999946	-61.09195000
88.51999946	-55.70238000
88.55999946	-50.31281000
88.59999946	-43.12265000
88.63999946	-34.13800000
88.67999946	-26.95395000
88.71999946	-16.16870000
88.75999946	-8.98464900
88.79999946	3.58897700
88.83999946	14.37422000
88.87999946	30.54292000
88.91999946	48.51222000
88.95999946	62.89254000
88.99999946	79.06125000
89.03999946	98.83114000
89.07999946	115.00600000
89.11999946	134.76970000
89.15999946	147.34950000
89.19999946	156.33410000
89.23999946	158.12860000
89.27999946	152.73900000
89.31999946	141.95990000
89.35999946	129.38020000
89.39999946	118.59490000
89.43999946	107.81580000
89.47999946	97.03055000
89.51999946	86.25141000
89.55999946	73.67168000
89.59999946	62.89254000
89.63999946	50.31281000
89.67999945	41.32816000
89.71999945	32.34352000
89.75999945	25.15336000
89.79999945	14.37422000
89.83999945	5.38956800
89.87999945	-5.38956800
89.91999945	-16.16870000
89.95999945	-28.74844000
89.99999945	-41.32816000
90.03999945	-52.10730000
90.07999945	-62.89254000
90.11999945	-71.87719000
90.15999945	-80.86184000
90.19999945	-89.84650000
90.23999945	-95.23605000
90.27999945	-100.62560000
90.31999945	-100.62560000
90.35999945	-102.42620000
90.39999945	-100.62560000
90.43999945	-95.23605000
90.47999945	-93.44157000
90.51999945	-89.84650000
90.55999945	-88.04590000
90.59999945	-86.25141000
90.63999945	-80.86184000
90.67999945	-82.65633000
90.71999945	-80.86184000
90.75999945	-79.06125000
90.79999945	-79.06125000
90.83999945	-79.06125000
90.87999945	-75.47227000
90.91999945	-71.87719000
90.95999945	-68.28211000
90.99999945	-62.89254000
91.03999945	-53.90789000
91.07999945	-46.71774000
91.11999945	-37.73308000
91.15999945	-28.74844000
91.19999945	-17.96930000
91.23999945	-7.18405700
91.27999945	5.38956800
91.31999945	17.96930000
91.35999944	32.34352000
91.39999944	46.71774000
91.43999944	61.09195000
91.47999944	75.47227000
91.51999944	91.64098000
91.55999944	104.22070000
91.59999944	120.39550000
91.63999944	132.97520000
91.67999944	145.54890000
91.71999944	143.75440000
91.75999944	138.36480000
91.79999944	143.75440000
91.83999944	141.95990000
91.87999944	125.78510000
91.91999944	111.41090000
91.95999944	98.83114000
91.99999944	93.44157000
92.03999944	80.86184000
92.07999944	66.48762000
92.11999944	57.50298000
92.15999944	46.71774000
92.19999944	35.93859000
92.23999944	26.95395000
92.27999944	17.96930000
92.31999944	7.18405700
92.35999944	-1.79448800
92.39999944	-12.57363000
92.43999944	-23.35887000
92.47999944	-34.13800000
92.51999944	-46.71774000
92.55999944	-57.50298000
92.59999944	-68.28211000
92.63999944	-79.06125000
92.67999944	-86.25141000
92.71999944	-93.44157000
92.75999944	-95.23605000
92.79999944	-98.83114000
92.83999944	-95.23605000
92.87999944	-95.23605000
92.91999944	-91.64098000
92.95999944	-89.84650000
92.99999943	-82.65633000
93.03999943	-80.86184000
93.07999943	-73.67168000
93.11999943	-79.06125000
93.15999943	-79.06125000
93.19999943	-79.06125000
93.23999943	-77.26676000
93.27999943	-80.86184000
93.31999943	-80.86184000
93.35999943	-79.06125000
93.39999943	-73.67168000
93.43999943	-71.87719000
93.47999943	-66.48762000
93.51999943	-59.29746000
93.55999943	-50.31281000
93.59999943	-43.12265000
93.63999943	-32.34352000
93.67999943	-23.35887000
93.71999943	-10.77914000
93.75999943	0.00000000
93.79999943	14.37422000
93.83999943	28.74844000
93.87999943	43.12265000
93.91999943	59.29746000
93.95999943	75.47227000
93.99999943	91.64098000
94.03999943	107.81580000
94.07999943	120.39550000
94.11999943	134.76970000
94.15999943	145.54890000
94.19999943	154.53350000
94.23999943	154.53350000
94.27999943	149.14400000
94.31999943	140.15930000
94.35999943	129.38020000
94.39999943	116.80040000
94.43999943	106.01520000
94.47999943	95.23605000
94.51999943	84.45692000
94.55999943	73.67168000
94.59999943	62.89254000
94.63999942	52.10730000
94.67999942	43.12265000
94.71999942	32.34352000
94.75999942	25.15336000
94.79999942	14.37422000
94.83999942	5.38956800
94.87999942	-7.18405700
94.91999942	-17.96930000
94.95999942	-30.54292000
94.99999942	-43.12265000
95.03999942	-53.90789000
95.07999942	-64.68703000
95.11999942	-73.67168000
95.15999942	-84.45692000
95.19999942	-91.64098000
95.23999942	-97.03055000
95.27999942	-100.62560000
95.31999942	-100.62560000
95.35999942	-97.03055000
95.39999942	-95.23605000
95.43999942	-89.84650000
95.47999942	-86.25141000
95.51999942	-84.45692000
95.55999942	-82.65633000
95.59999942	-80.86184000
95.63999942	-80.86184000
95.67999942	-80.86184000
95.71999942	-79.06125000
95.75999942	-80.86184000
95.79999942	-79.06125000
95.83999942	-79.06125000
95.87999942	-75.47227000
95.91999942	-71.87719000
95.95999942	-66.48762000
95.99999942	-59.29746000
96.03999942	-52.10730000
96.07999942	-43.12265000
96.11999942	-35.93859000
96.15999942	-25.15336000
96.19999942	-14.37422000
96.23999942	0.00000000
96.27999941	14.37422000
96.31999941	28.74844000
96.35999941	43.12265000
96.39999941	57.50298000
96.43999941	70.07660000
96.47999941	84.45692000
96.51999941	98.83114000
96.55999941	113.20540000
96.59999941	122.19000000
96.63999941	131.17470000
96.67999941	140.15930000
96.71999941	147.34950000
96.75999941	145.54890000
96.79999941	141.95990000
96.83999941	129.38020000
96.87999941	122.19000000
96.91999941	111.41090000
96.95999941	100.62560000
96.99999941	89.84650000
97.03999941	77.26676000
97.07999941	64.68703000
97.11999941	53.90789000
97.15999941	43.12265000
97.19999941	32.34352000
97.23999941	23.35887000
97.27999941	14.37422000
97.31999941	5.38956800
97.35999941	-3.58897700
97.39999941	-14.37422000
97.43999941	-25.15336000
97.47999941	-35.93859000
97.51999941	-48.51222000
97.55999941	-59.29746000
97.59999941	-68.28211000
97.63999941	-79.06125000
97.67999941	-89.84650000
97.71999941	-97.03055000
97.75999941	-104.22070000
97.79999941	-107.81580000
97.83999941	-109.61030000
97.87999941	-106.01520000
97.91999940	-100.62560000
97.95999940	-89.84650000
97.99999940	-80.86184000
98.03999940	-71.87719000
98.07999940	-71.87719000
98.11999940	-71.87719000
98.15999940	-71.87719000
98.19999940	-70.07660000
98.23999940	-71.87719000
98.27999940	-73.67168000
98.31999940	-75.47227000
98.35999940	-71.87719000
98.39999940	-71.87719000
98.43999940	-68.28211000
98.47999940	-64.68703000
98.51999940	-59.29746000
98.55999940	-50.31281000
98.59999940	-41.32816000
98.63999940	-32.34352000
98.67999940	-23.35887000
98.71999940	-12.57363000
98.75999940	0.00000000
98.79999940	14.37422000
98.83999940	28.74844000
98.87999940	46.71774000
98.91999940	62.89254000
98.95999940	80.86184000
98.99999940	98.83114000
99.03999940	115.00600000
99.07999940	132.97520000
99.11999940	147.34950000
99.15999940	156.33410000
99.19999940	159.92920000
99.23999940	154.53350000
99.27999940	145.54890000
99.31999940	132.97520000
99.35999940	122.19000000
99.39999940	111.41090000
99.43999940	100.62560000
99.47999940	91.64098000
99.51999940	86.25141000
99.55999939	80.86184000
99.59999939	77.26676000
99.63999939	70.07660000
99.67999939	61.09195000
99.71999939	46.71774000
99.75999939	25.15336000
99.79999939	1.79448800
99.83999939	-21.55827000
99.87999939	-46.71774000
99.91999939	-66.48762000
99.95999939	-79.06125000
99.99999939	-82.65633000
100.03999939	-80.86184000
100.07999939	-79.06125000
100.11999939	-79.06125000
100.15999939	-77.26676000
100.19999939	-79.06125000
100.23999939	-82.65633000
100.27999939	-84.45692000
100.31999939	-89.84650000
100.35999939	-86.25141000
100.39999939	-82.65633000
100.43999939	-75.47227000
100.47999939	-73.67168000
100.51999939	-73.67168000
100.55999939	-71.87719000
100.59999939	-71.87719000
100.63999939	-71.87719000
100.67999939	-73.67168000
100.71999939	-77.26676000
100.75999939	-80.86184000
100.79999939	-84.45692000
100.83999939	-86.25141000
100.87999939	-86.25141000
100.91999939	-86.25141000
100.95999939	-79.06125000
100.99999939	-70.07660000
101.03999939	-57.50298000
101.07999939	-44.92325000
101.11999939	-30.54292000
101.15999939	-14.37422000
101.19999938	0.00000000
101.23999938	14.37422000
101.27999938	26.95395000
101.31999938	39.52757000
101.35999938	52.10730000
101.39999938	64.68703000
101.43999938	77.26676000
101.47999938	91.64098000
101.51999938	107.81580000
101.55999938	127.57960000
101.59999938	129.38020000
101.63999938	143.75440000
101.67999938	158.12860000
101.71999938	156.33410000
101.75999938	140.15930000
101.79999938	125.78510000
101.83999938	113.20540000
101.87999938	107.81580000
101.91999938	95.23605000
101.95999938	86.25141000
101.99999938	80.86184000
102.03999938	73.67168000
102.07999938	64.68703000
102.11999938	55.70238000
102.15999938	48.51222000
102.19999938	37.73308000
102.23999938	26.95395000
102.27999938	17.96930000
102.31999938	7.18405700
102.35999938	-5.38956800
102.39999938	-21.55827000
102.43999938	-32.34352000
102.47999938	-44.92325000
102.51999938	-57.50298000
102.55999938	-68.28211000
102.59999938	-79.06125000
102.63999938	-86.25141000
102.67999938	-93.44157000
102.71999938	-100.62560000
102.75999938	-100.62560000
102.79999938	-98.83114000
102.83999937	-93.44157000
102.87999937	-86.25141000
102.91999937	-82.65633000
102.95999937	-82.65633000
102.99999937	-82.65633000
103.03999937	-79.06125000
103.07999937	-75.47227000
103.11999937	-79.06125000
103.15999937	-79.06125000
103.19999937	-75.47227000
103.23999937	-77.26676000
103.27999937	-79.06125000
103.31999937	-80.86184000
103.35999937	-79.06125000
103.39999937	-73.67168000
103.43999937	-68.28211000
103.47999937	-61.09195000
103.51999937	-52.10730000
103.55999937	-43.12265000
103.59999937	-32.34352000
103.63999937	-21.55827000
103.67999937	-10.77914000
103.71999937	0.00000000
103.75999937	14.37422000
103.79999937	28.74844000
103.83999937	43.12265000
103.87999937	57.50298000
103.91999937	73.67168000
103.95999937	89.84650000
103.99999937	106.01520000
104.03999937	122.19000000
104.07999937	136.56420000
104.11999937	149.14400000
104.15999937	156.33410000
104.19999937	156.33410000
104.23999937	149.14400000
104.27999937	140.15930000
104.31999937	129.38020000
104.35999937	118.59490000
104.39999937	107.81580000
104.43999937	98.83114000
104.47999937	88.04590000
104.51999936	79.06125000
104.55999936	68.28211000
104.59999936	57.50298000
104.63999936	50.31281000
104.67999936	41.32816000
104.71999936	30.54292000
104.75999936	21.55827000
104.79999936	10.77914000
104.83999936	0.00000000
104.87999936	-12.57363000
104.91999936	-25.15336000
104.95999936	-37.73308000
104.99999936	-50.31281000
105.03999936	-61.09195000
105.07999936	-71.87719000
105.11999936	-79.06125000
105.15999936	-88.04590000
105.19999936	-95.23605000
105.23999936	-97.03055000
105.27999936	-98.83114000
105.31999936	-95.23605000
105.35999936	-93.44157000
105.39999936	-89.84650000
105.43999936	-88.04590000
105.47999936	-86.25141000
105.51999936	-86.25141000
105.55999936	-84.45692000
105.59999936	-80.86184000
105.63999936	-80.86184000
105.67999936	-79.06125000
105.71999936	-79.06125000
105.75999936	-77.26676000
105.79999936	-75.47227000
105.83999936	-73.67168000
105.87999936	-70.07660000
105.91999936	-64.68703000
105.95999936	-57.50298000
105.99999936	-52.10730000
106.03999936	-43.12265000
106.07999936	-35.93859000
106.11999936	-26.95395000
106.15999935	-16.16870000
106.19999935	-5.38956800
106.23999935	7.18405700
106.27999935	21.55827000
106.31999935	35.93859000
106.35999935	50.31281000
106.39999935	64.68703000
106.43999935	79.06125000
106.47999935	91.64098000
106.51999935	107.81580000
106.55999935	125.78510000
106.59999935	140.15930000
106.63999935	145.54890000
106.67999935	149.14400000
106.71999935	149.14400000
106.75999935	143.75440000
106.79999935	136.56420000
106.83999935	125.78510000
106.87999935	115.00600000
106.91999935	106.01520000
106.95999935	95.23605000
106.99999935	84.45692000
107.03999935	73.67168000
107.07999935	61.09195000
107.11999935	52.10730000
107.15999935	41.32816000
107.19999935	32.34352000
107.23999935	21.55827000
107.27999935	12.57363000
107.31999935	0.00000000
107.35999935	-8.98464900
107.39999935	-21.55827000
107.43999935	-34.13800000
107.47999935	-44.92325000
107.51999935	-55.70238000
107.55999935	-66.48762000
107.59999935	-77.26676000
107.63999935	-86.25141000
107.67999935	-91.64098000
107.71999935	-95.23605000
107.75999935	-97.03055000
107.79999934	-93.44157000
107.83999934	-93.44157000
107.87999934	-91.64098000
107.91999934	-91.64098000
107.95999934	-89.84650000
107.99999934	-88.04590000
108.03999934	-86.25141000
108.07999934	-86.25141000
108.11999934	-86.25141000
108.15999934	-82.65633000
108.19999934	-80.86184000
108.23999934	-79.06125000
108.27999934	-79.06125000
108.31999934	-77.26676000
108.35999934	-71.87719000
108.39999934	-66.48762000
108.43999934	-59.29746000
108.47999934	-53.90789000
108.51999934	-48.51222000
108.55999934	-41.32816000
108.59999934	-34.13800000
108.63999934	-26.95395000
108.67999934	-14.37422000
108.71999934	-1.79448800
108.75999934	12.57363000
108.79999934	26.95395000
108.83999934	43.12265000
108.87999934	57.50298000
108.91999934	73.67168000
108.95999934	89.84650000
108.99999934	106.01520000
109.03999934	120.39550000
109.07999934	134.76970000
109.11999934	145.54890000
109.15999934	150.94450000
109.19999934	150.94450000
109.23999934	147.34950000
109.27999934	138.36480000
109.31999934	127.57960000
109.35999934	118.59490000
109.39999934	107.81580000
109.43999933	97.03055000
109.47999933	88.04590000
109.51999933	77.26676000
109.55999933	66.48762000
109.59999933	55.70238000
109.63999933	46.71774000
109.67999933	35.93859000
109.71999933	26.95395000
109.75999933	17.96930000
109.79999933	7.18405700
109.83999933	-3.58897700
109.87999933	-14.37422000
109.91999933	-26.95395000
109.95999933	-37.73308000
109.99999933	-50.31281000
110.03999933	-61.09195000
110.07999933	-71.87719000
110.11999933	-80.86184000
110.15999933	-89.84650000
110.19999933	-97.03055000
110.23999933	-98.83114000
110.27999933	-102.42620000
110.31999933	-93.44157000
110.35999933	-89.84650000
110.39999933	-82.65633000
110.43999933	-80.86184000
110.47999933	-79.06125000
110.51999933	-75.47227000
110.55999933	-77.26676000
110.59999933	-77.26676000
110.63999933	-79.06125000
110.67999933	-79.06125000
110.71999933	-80.86184000
110.75999933	-80.86184000
110.79999933	-80.86184000
110.83999933	-79.06125000
110.87999933	-75.47227000
110.91999933	-70.07660000
110.95999933	-62.89254000
110.99999933	-53.90789000
111.03999933	-44.92325000
111.07999932	-35.93859000
111.11999932	-25.15336000
111.15999932	-14.37422000
111.19999932	-3.58897700
111.23999932	8.98464900
111.27999932	23.35887000
111.31999932	41.32816000
111.35999932	57.50298000
111.39999932	62.89254000
111.43999932	77.26676000
111.47999932	104.22070000
111.51999932	122.19000000
111.55999932	129.38020000
111.59999932	141.95990000
111.63999932	149.14400000
111.67999932	158.12860000
111.71999932	150.94450000
111.75999932	143.75440000
111.79999932	134.76970000
111.83999932	125.78510000
111.87999932	113.20540000
111.91999932	102.42620000
111.95999932	93.44157000
111.99999932	82.65633000
112.03999932	71.87719000
112.07999932	62.89254000
112.11999932	52.10730000
112.15999932	43.12265000
112.19999932	32.34352000
112.23999932	23.35887000
112.27999932	14.37422000
112.31999932	1.79448800
112.35999932	-8.98464900
112.39999932	-21.55827000
112.43999932	-32.34352000
112.47999932	-44.92325000
112.51999932	-57.50298000
112.55999932	-66.48762000
112.59999932	-77.26676000
112.63999932	-86.25141000
112.67999932	-93.44157000
112.71999931	-97.03055000
112.75999931	-98.83114000
112.79999931	-97.03055000
112.83999931	-98.83114000
112.87999931	-91.64098000
112.91999931	-88.04590000
112.95999931	-88.04590000
112.99999931	-86.25141000
113.03999931	-82.65633000
113.07999931	-84.45692000
113.11999931	-79.06125000
113.15999931	-77.26676000
113.19999931	-75.47227000
113.23999931	-73.67168000
113.27999931	-71.87719000
113.31999931	-71.87719000
113.35999931	-70.07660000
113.39999931	-66.48762000
113.43999931	-61.09195000
113.47999931	-53.90789000
113.51999931	-48.51222000
113.55999931	-39.52757000
113.59999931	-32.34352000
113.63999931	-21.55827000
113.67999931	-12.57363000
113.71999931	0.00000000
113.75999931	14.37422000
113.79999931	30.54292000
113.83999931	46.71774000
113.87999931	61.09195000
113.91999931	77.26676000
113.95999931	91.64098000
113.99999931	107.81580000
114.03999931	122.19000000
114.07999931	136.56420000
114.11999931	145.54890000
114.15999931	150.94450000
114.19999931	152.73900000
114.23999931	147.34950000
114.27999931	138.36480000
114.31999931	127.57960000
114.35999930	116.80040000
114.39999930	107.81580000
114.43999930	97.03055000
114.47999930	86.25141000
114.51999930	75.47227000
114.55999930	64.68703000
114.59999930	53.90789000
114.63999930	43.12265000
114.67999930	34.13800000
114.71999930	25.15336000
114.75999930	14.37422000
114.79999930	5.38956800
114.83999930	-5.38956800
114.87999930	-16.16870000
114.91999930	-28.74844000
114.95999930	-39.52757000
114.99999930	-52.10730000
115.03999930	-61.09195000
115.07999930	-71.87719000
115.11999930	-82.65633000
115.15999930	-89.84650000
115.19999930	-95.23605000
115.23999930	-98.83114000
115.27999930	-97.03055000
115.31999930	-95.23605000
115.35999930	-91.64098000
115.39999930	-89.84650000
115.43999930	-88.04590000
115.47999930	-86.25141000
115.51999930	-84.45692000
115.55999930	-79.06125000
115.59999930	-77.26676000
115.63999930	-75.47227000
115.67999930	-73.67168000
115.71999930	-77.26676000
115.75999930	-73.67168000
115.79999930	-75.47227000
115.83999930	-71.87719000
115.87999930	-70.07660000
115.91999930	-64.68703000
115.95999930	-57.50298000
115.99999930	-52.10730000
116.03999929	-44.92325000
116.07999929	-35.93859000
116.11999929	-28.74844000
116.15999929	-17.96930000
116.19999929	-7.18405700
116.23999929	7.18405700
116.27999929	17.96930000
116.31999929	35.93859000
116.35999929	53.90789000
116.39999929	71.87719000
116.43999929	88.04590000
116.47999929	104.22070000
116.51999929	120.39550000
116.55999929	132.97520000
116.59999929	145.54890000
116.63999929	154.53350000
116.67999929	156.33410000
116.71999929	150.94450000
116.75999929	143.75440000
116.79999929	132.97520000
116.83999929	120.39550000
116.87999929	109.61030000
116.91999929	100.62560000
116.95999929	88.04590000
116.99999929	77.26676000
117.03999929	66.48762000
117.07999929	55.70238000
117.11999929	44.92325000
117.15999929	35.93859000
117.19999929	26.95395000
117.23999929	17.96930000
117.27999929	7.18405700
117.31999929	-3.58897700
117.35999929	-14.37422000
117.39999929	-25.15336000
117.43999929	-37.73308000
117.47999929	-48.51222000
117.51999929	-59.29746000
117.55999929	-68.28211000
117.59999929	-77.26676000
117.63999929	-84.45692000
117.67999928	-91.64098000
117.71999928	-95.23605000
117.75999928	-97.03055000
117.79999928	-95.23605000
117.83999928	-86.25141000
117.87999928	-79.06125000
117.91999928	-75.47227000
117.95999928	-75.47227000
117.99999928	-73.67168000
118.03999928	-71.87719000
118.07999928	-71.87719000
118.11999928	-73.67168000
118.15999928	-75.47227000
118.19999928	-75.47227000
118.23999928	-75.47227000
118.27999928	-75.47227000
118.31999928	-75.47227000
118.35999928	-71.87719000
118.39999928	-66.48762000
118.43999928	-59.29746000
118.47999928	-52.10730000
118.51999928	-44.92325000
118.55999928	-35.93859000
118.59999928	-26.95395000
118.63999928	-14.37422000
118.67999928	0.00000000
118.71999928	14.37422000
118.75999928	34.13800000
118.79999928	55.70238000
118.83999928	80.86184000
118.87999928	100.62560000
118.91999928	104.22070000
118.95999928	102.42620000
118.99999928	109.61030000
119.03999928	116.80040000
119.07999928	115.00600000
119.11999928	111.41090000
119.15999928	111.41090000
119.19999928	118.59490000
119.23999928	127.57960000
119.27999928	127.57960000
119.31999927	122.19000000
119.35999927	120.39550000
119.39999927	120.39550000
119.43999927	115.00600000
119.47999927	100.62560000
119.51999927	84.45692000
119.55999927	71.87719000
119.59999927	64.68703000
119.63999927	55.70238000
119.67999927	44.92325000
119.71999927	28.74844000
119.75999927	17.96930000
119.79999927	7.18405700
119.83999927	-7.18405700
119.87999927	-23.35887000
119.91999927	-37.73308000
119.95999927	-53.90789000
119.99999927	-68.28211000
120.03999927	-80.86184000
120.07999927	-93.44157000
120.11999927	-102.42620000
120.15999927	-107.81580000
120.19999927	-109.61030000
120.23999927	-98.83114000
120.27999927	-91.64098000
120.31999927	-80.86184000
120.35999927	-75.47227000
120.39999927	-70.07660000
120.43999927	-68.28211000
120.47999927	-68.28211000
120.51999927	-70.07660000
120.55999927	-71.87719000
120.59999927	-71.87719000
120.63999927	-73.67168000
120.67999927	-75.47227000
120.71999927	-75.47227000
120.75999927	-73.67168000
120.79999927	-71.87719000
120.83999927	-66.48762000
120.87999927	-62.89254000
120.91999927	-59.29746000
120.95999926	-53.90789000
120.99999926	-46.71774000
121.03999926	-41.32816000
121.07999926	-35.93859000
121.11999926	-25.15336000
121.15999926	-10.77914000
121.19999926	7.18405700
121.23999926	19.76379000
121.27999926	30.54292000
121.31999926	59.29746000
121.35999926	82.65633000
121.39999926	91.64098000
121.43999926	106.01520000
121.47999926	118.59490000
121.51999926	138.36480000
121.55999926	149.14400000
121.59999926	150.94450000
121.63999926	156.33410000
121.67999926	150.94450000
121.71999926	140.15930000
121.75999926	127.57960000
121.79999926	118.59490000
121.83999926	107.81580000
121.87999926	97.03055000
121.91999926	89.84650000
121.95999926	80.86184000
121.99999926	71.87719000
122.03999926	61.09195000
122.07999926	50.31281000
122.11999926	41.32816000
122.15999926	32.34352000
122.19999926	23.35887000
122.23999926	14.37422000
122.27999926	3.58897700
122.31999926	-7.18405700
122.35999926	-19.76379000
122.39999926	-30.54292000
122.43999926	-43.12265000
122.47999926	-55.70238000
122.51999926	-66.48762000
122.55999926	-79.06125000
122.59999925	-86.25141000
122.63999925	-93.44157000
122.67999925	-100.62560000
122.71999925	-100.62560000
122.75999925	-97.03055000
122.79999925	-97.03055000
122.83999925	-97.03055000
122.87999925	-95.23605000
122.91999925	-93.44157000
122.95999925	-93.44157000
122.99999925	-91.64098000
123.03999925	-89.84650000
123.07999925	-82.65633000
123.11999925	-79.06125000
123.15999925	-71.87719000
123.19999925	-71.87719000
123.23999925	-66.48762000
123.27999925	-62.89254000
123.31999925	-57.50298000
123.35999925	-53.90789000
123.39999925	-50.31281000
123.43999925	-46.71774000
123.47999925	-41.32816000
123.51999925	-39.52757000
123.55999925	-34.13800000
123.59999925	-28.74844000
123.63999925	-17.96930000
123.67999925	-7.18405700
123.71999925	7.18405700
123.75999925	21.55827000
123.79999925	35.93859000
123.83999925	55.70238000
123.87999925	71.87719000
123.91999925	91.64098000
123.95999925	107.81580000
123.99999925	125.78510000
124.03999925	140.15930000
124.07999925	150.94450000
124.11999925	156.33410000
124.15999925	154.53350000
124.19999925	147.34950000
124.23999924	138.36480000
124.27999924	127.57960000
124.31999924	116.80040000
124.35999924	106.01520000
124.39999924	95.23605000
124.43999924	84.45692000
124.47999924	73.67168000
124.51999924	61.09195000
124.55999924	50.31281000
124.59999924	39.52757000
124.63999924	28.74844000
124.67999924	19.76379000
124.71999924	8.98464900
124.75999924	0.00000000
124.79999924	-10.77914000
124.83999924	-21.55827000
124.87999924	-34.13800000
124.91999924	-44.92325000
124.95999924	-55.70238000
124.99999924	-64.68703000
125.03999924	-73.67168000
125.07999924	-84.45692000
125.11999924	-89.84650000
125.15999924	-95.23605000
125.19999924	-98.83114000
125.23999924	-100.62560000
125.27999924	-100.62560000
125.31999924	-100.62560000
125.35999924	-100.62560000
125.39999924	-97.03055000
125.43999924	-95.23605000
125.47999924	-93.44157000
125.51999924	-93.44157000
125.55999924	-91.64098000
125.59999924	-88.04590000
125.63999924	-86.25141000
125.67999924	-82.65633000
125.71999924	-80.86184000
125.75999924	-79.06125000
125.79999924	-73.67168000
125.83999924	-70.07660000
125.87999923	-64.68703000
125.91999923	-59.29746000
125.95999923	-53.90789000
125.99999923	-44.92325000
126.03999923	-35.93859000
126.07999923	-28.74844000
126.11999923	-17.96930000
126.15999923	-7.18405700
126.19999923	7.18405700
126.23999923	25.15336000
126.27999923	35.93859000
126.31999923	52.10730000
126.35999923	62.89254000
126.39999923	79.06125000
126.43999923	93.44157000
126.47999923	109.61030000
126.51999923	120.39550000
126.55999923	132.97520000
126.59999923	140.15930000
126.63999923	143.75440000
126.67999923	143.75440000
126.71999923	138.36480000
126.75999923	132.97520000
126.79999923	122.19000000
126.83999923	113.20540000
126.87999923	102.42620000
126.91999923	89.84650000
126.95999923	77.26676000
126.99999923	66.48762000
127.03999923	53.90789000
127.07999923	43.12265000
127.11999923	32.34352000
127.15999923	23.35887000
127.19999923	14.37422000
127.23999923	5.38956800
127.27999923	-5.38956800
127.31999923	-14.37422000
127.35999923	-23.35887000
127.39999923	-34.13800000
127.43999923	-43.12265000
127.47999923	-53.90789000
127.51999923	-66.48762000
127.55999922	-79.06125000
127.59999922	-89.84650000
127.63999922	-97.03055000
127.67999922	-100.62560000
127.71999922	-104.22070000
127.75999922	-104.22070000
127.79999922	-102.42620000
127.83999922	-97.03055000
127.87999922	-88.04590000
127.91999922	-82.65633000
127.95999922	-79.06125000
127.99999922	-79.06125000
128.03999922	-77.26676000
128.07999922	-77.26676000
128.11999922	-77.26676000
128.15999922	-79.06125000
128.19999922	-82.65633000
128.23999922	-82.65633000
128.27999922	-79.06125000
128.31999922	-79.06125000
128.35999922	-75.47227000
128.39999922	-70.07660000
128.43999922	-62.89254000
128.47999922	-52.10730000
128.51999922	-43.12265000
128.55999922	-32.34352000
128.59999922	-21.55827000
128.63999922	-8.98464900
128.67999922	1.79448800
128.71999922	14.37422000
128.75999922	30.54292000
128.79999922	44.92325000
128.83999922	59.29746000
128.87999922	75.47227000
128.91999922	89.84650000
128.95999922	106.01520000
128.99999922	120.39550000
129.03999922	136.56420000
129.07999922	145.54890000
129.11999922	152.73900000
129.15999922	156.33410000
129.19999921	150.94450000
129.23999921	141.95990000
129.27999921	131.17470000
129.31999921	118.59490000
129.35999921	107.81580000
129.39999921	95.23605000
129.43999921	84.45692000
129.47999921	71.87719000
129.51999921	61.09195000
129.55999921	48.51222000
129.59999921	39.52757000
129.63999921	28.74844000
129.67999921	21.55827000
129.71999921	12.57363000
129.75999921	3.58897700
129.79999921	-7.18405700
129.83999921	-17.96930000
129.87999921	-30.54292000
129.91999921	-41.32816000
129.95999921	-52.10730000
129.99999921	-62.89254000
130.03999921	-73.67168000
130.07999921	-82.65633000
130.11999921	-91.64098000
130.15999921	-95.23605000
130.19999921	-97.03055000
130.23999921	-95.23605000
130.27999921	-91.64098000
130.31999921	-88.04590000
130.35999921	-86.25141000
130.39999921	-84.45692000
130.43999921	-82.65633000
130.47999921	-80.86184000
130.51999921	-79.06125000
130.55999921	-79.06125000
130.59999921	-75.47227000
130.63999921	-77.26676000
130.67999921	-75.47227000
130.71999921	-75.47227000
130.75999921	-73.67168000
130.79999921	-71.87719000
130.83999920	-66.48762000
130.87999920	-59.29746000
130.91999920	-53.90789000
130.95999920	-44.92325000
130.99999920	-39.52757000
131.03999920	-28.74844000
131.07999920	-25.15336000
131.11999920	-25.15336000
131.15999920	-1.79448800
131.19999920	17.96930000
131.23999920	25.15336000
131.27999920	37.73308000
131.31999920	52.10730000
131.35999920	73.67168000
131.39999920	91.64098000
131.43999920	107.81580000
131.47999920	123.99060000
131.51999920	141.95990000
131.55999920	150.94450000
131.59999920	158.12860000
131.63999920	158.12860000
131.67999920	150.94450000
131.71999920	136.56420000
131.75999920	129.38020000
131.79999920	118.59490000
131.83999920	107.81580000
131.87999920	97.03055000
131.91999920	86.25141000
131.95999920	77.26676000
131.99999920	64.68703000
132.03999920	55.70238000
132.07999920	46.71774000
132.11999920	35.93859000
132.15999920	26.95395000
132.19999920	17.96930000
132.23999920	7.18405700
132.27999920	-5.38956800
132.31999920	-17.96930000
132.35999920	-30.54292000
132.39999920	-43.12265000
132.43999920	-52.10730000
132.47999919	-64.68703000
132.51999919	-77.26676000
132.55999919	-84.45692000
132.59999919	-88.04590000
132.63999919	-93.44157000
132.67999919	-97.03055000
132.71999919	-97.03055000
132.75999919	-93.44157000
132.79999919	-91.64098000
132.83999919	-88.04590000
132.87999919	-86.25141000
132.91999919	-79.06125000
132.95999919	-79.06125000
132.99999919	-79.06125000
133.03999919	-77.26676000
133.07999919	-77.26676000
133.11999919	-77.26676000
133.15999919	-77.26676000
133.19999919	-79.06125000
133.23999919	-75.47227000
133.27999919	-73.67168000
133.31999919	-70.07660000
133.35999919	-62.89254000
133.39999919	-57.50298000
133.43999919	-50.31281000
133.47999919	-41.32816000
133.51999919	-30.54292000
133.55999919	-21.55827000
133.59999919	-8.98464900
133.63999919	1.79448800
133.67999919	14.37422000
133.71999919	28.74844000
133.75999919	43.12265000
133.79999919	57.50298000
133.83999919	71.87719000
133.87999919	84.45692000
133.91999919	100.62560000
133.95999919	115.00600000
133.99999919	127.57960000
134.03999919	140.15930000
134.07999919	147.34950000
134.11999918	149.14400000
134.15999918	147.34950000
134.19999918	141.95990000
134.23999918	131.17470000
134.27999918	120.39550000
134.31999918	111.41090000
134.35999918	100.62560000
134.39999918	89.84650000
134.43999918	77.26676000
134.47999918	68.28211000
134.51999918	55.70238000
134.55999918	46.71774000
134.59999918	35.93859000
134.63999918	26.95395000
134.67999918	17.96930000
134.71999918	7.18405700
134.75999918	-1.79448800
134.79999918	-14.37422000
134.83999918	-25.15336000
134.87999918	-35.93859000
134.91999918	-48.51222000
134.95999918	-59.29746000
134.99999918	-70.07660000
135.03999918	-80.86184000
135.07999918	-88.04590000
135.11999918	-95.23605000
135.15999918	-98.83114000
135.19999918	-102.42620000
135.23999918	-97.03055000
135.27999918	-93.44157000
135.31999918	-88.04590000
135.35999918	-86.25141000
135.39999918	-84.45692000
135.43999918	-82.65633000
135.47999918	-80.86184000
135.51999918	-80.86184000
135.55999918	-82.65633000
135.59999918	-80.86184000
135.63999918	-80.86184000
135.67999918	-82.65633000
135.71999918	-80.86184000
135.75999917	-79.06125000
135.79999917	-73.67168000
135.83999917	-70.07660000
135.87999917	-62.89254000
135.91999917	-53.90789000
135.95999917	-48.51222000
135.99999917	-39.52757000
136.03999917	-26.95395000
136.07999917	-12.57363000
136.11999917	0.00000000
136.15999917	12.57363000
136.19999917	23.35887000
136.23999917	37.73308000
136.27999917	50.31281000
136.31999917	64.68703000
136.35999917	79.06125000
136.39999917	91.64098000
136.43999917	106.01520000
136.47999917	118.59490000
136.51999917	131.17470000
136.55999917	138.36480000
136.59999917	143.75440000
136.63999917	143.75440000
136.67999917	143.75440000
136.71999917	136.56420000
136.75999917	127.57960000
136.79999917	116.80040000
136.83999917	107.81580000
136.87999917	95.23605000
136.91999917	84.45692000
136.95999917	73.67168000
136.99999917	61.09195000
137.03999917	50.31281000
137.07999917	39.52757000
137.11999917	28.74844000
137.15999917	19.76379000
137.19999917	10.77914000
137.23999917	1.79448800
137.27999917	-7.18405700
137.31999917	-17.96930000
137.35999917	-30.54292000
137.39999916	-43.12265000
137.43999916	-53.90789000
137.47999916	-64.68703000
137.51999916	-73.67168000
137.55999916	-82.65633000
137.59999916	-91.64098000
137.63999916	-97.03055000
137.67999916	-97.03055000
137.71999916	-93.44157000
137.75999916	-88.04590000
137.79999916	-86.25141000
137.83999916	-82.65633000
137.87999916	-80.86184000
137.91999916	-79.06125000
137.95999916	-80.86184000
137.99999916	-80.86184000
138.03999916	-80.86184000
138.07999916	-80.86184000
138.11999916	-80.86184000
138.15999916	-80.86184000
138.19999916	-77.26676000
138.23999916	-73.67168000
138.27999916	-70.07660000
138.31999916	-64.68703000
138.35999916	-57.50298000
138.39999916	-50.31281000
138.43999916	-43.12265000
138.47999916	-35.93859000
138.51999916	-30.54292000
138.55999916	-21.55827000
138.59999916	-14.37422000
138.63999916	-3.58897700
138.67999916	10.77914000
138.71999916	25.15336000
138.75999916	39.52757000
138.79999916	55.70238000
138.83999916	71.87719000
138.87999916	89.84650000
138.91999916	106.01520000
138.95999916	122.19000000
138.99999916	138.36480000
139.03999915	150.94450000
139.07999915	156.33410000
139.11999915	158.12860000
139.15999915	150.94450000
139.19999915	141.95990000
139.23999915	129.38020000
139.27999915	118.59490000
139.31999915	107.81580000
139.35999915	98.83114000
139.39999915	88.04590000
139.43999915	77.26676000
139.47999915	66.48762000
139.51999915	55.70238000
139.55999915	44.92325000
139.59999915	35.93859000
139.63999915	26.95395000
139.67999915	16.16870000
139.71999915	5.38956800
139.75999915	-7.18405700
139.79999915	-19.76379000
139.83999915	-32.34352000
139.87999915	-43.12265000
139.91999915	-55.70238000
139.95999915	-66.48762000
139.99999915	-75.47227000
140.03999915	-84.45692000
140.07999915	-89.84650000
140.11999915	-95.23605000
140.15999915	-98.83114000
140.19999915	-97.03055000
140.23999915	-97.03055000
140.27999915	-89.84650000
140.31999915	-84.45692000
140.35999915	-79.06125000
140.39999915	-75.47227000
140.43999915	-71.87719000
140.47999915	-70.07660000
140.51999915	-71.87719000
140.55999915	-68.28211000
140.59999915	-68.28211000
140.63999915	-66.48762000
140.67999915	-68.28211000
140.71999914	-68.28211000
140.75999914	-66.48762000
140.79999914	-64.68703000
140.83999914	-61.09195000
140.87999914	-52.10730000
140.91999914	-48.51222000
140.95999914	-52.10730000
140.99999914	-35.93859000
141.03999914	-19.76379000
141.07999914	-14.37422000
141.11999914	-8.98464900
141.15999914	3.58897700
141.19999914	23.35887000
141.23999914	43.12265000
141.27999914	55.70238000
141.31999914	73.67168000
141.35999914	93.44157000
141.39999914	109.61030000
141.43999914	125.78510000
141.47999914	143.75440000
141.51999914	154.53350000
141.55999914	161.72370000
141.59999914	158.12860000
141.63999914	150.94450000
141.67999914	138.36480000
141.71999914	127.57960000
141.75999914	116.80040000
141.79999914	104.22070000
141.83999914	80.86184000
141.87999914	48.51222000
141.91999914	41.32816000
141.95999914	46.71774000
141.99999914	48.51222000
142.03999914	46.71774000
142.07999914	46.71774000
142.11999914	64.68703000
142.15999914	71.87719000
142.19999914	57.50298000
142.23999914	25.15336000
142.27999914	-5.38956800
142.31999914	-26.95395000
142.35999913	-46.71774000
142.39999913	-66.48762000
142.43999913	-88.04590000
142.47999913	-98.83114000
142.51999913	-98.83114000
142.55999913	-95.23605000
142.59999913	-100.62560000
142.63999913	-107.81580000
142.67999913	-107.81580000
142.71999913	-100.62560000
142.75999913	-89.84650000
142.79999913	-88.04590000
142.83999913	-86.25141000
142.87999913	-86.25141000
142.91999913	-77.26676000
142.95999913	-73.67168000
142.99999913	-71.87719000
143.03999913	-70.07660000
143.07999913	-66.48762000
143.11999913	-62.89254000
143.15999913	-57.50298000
143.19999913	-57.50298000
143.23999913	-61.09195000
143.27999913	-62.89254000
143.31999913	-61.09195000
143.35999913	-57.50298000
143.39999913	-57.50298000
143.43999913	-55.70238000
143.47999913	-46.71774000
143.51999913	-34.13800000
143.55999913	-16.16870000
143.59999913	-1.79448800
143.63999913	16.16870000
143.67999913	32.34352000
143.71999913	50.31281000
143.75999913	64.68703000
143.79999913	77.26676000
143.83999913	88.04590000
143.87999913	100.62560000
143.91999913	115.00600000
143.95999913	132.97520000
143.99999912	143.75440000
144.03999912	152.73900000
144.07999912	156.33410000
144.11999912	156.33410000
144.15999912	147.34950000
144.19999912	136.56420000
144.23999912	122.19000000
144.27999912	107.81580000
144.31999912	93.44157000
144.35999912	80.86184000
144.39999912	68.28211000
144.43999912	57.50298000
144.47999912	46.71774000
144.51999912	37.73308000
144.55999912	28.74844000
144.59999912	19.76379000
144.63999912	10.77914000
144.67999912	1.79448800
144.71999912	-7.18405700
144.75999912	-16.16870000
144.79999912	-26.95395000
144.83999912	-37.73308000
144.87999912	-50.31281000
144.91999912	-61.09195000
144.95999912	-71.87719000
144.99999912	-82.65633000
145.03999912	-89.84650000
145.07999912	-95.23605000
145.11999912	-97.03055000
145.15999912	-97.03055000
145.19999912	-97.03055000
145.23999912	-93.44157000
145.27999912	-91.64098000
145.31999912	-86.25141000
145.35999912	-84.45692000
145.39999912	-80.86184000
145.43999912	-79.06125000
145.47999912	-77.26676000
145.51999912	-75.47227000
145.55999912	-75.47227000
145.59999912	-73.67168000
145.63999911	-71.87719000
145.67999911	-71.87719000
145.71999911	-70.07660000
145.75999911	-64.68703000
145.79999911	-64.68703000
145.83999911	-59.29746000
145.87999911	-50.31281000
145.91999911	-39.52757000
145.95999911	-30.54292000
145.99999911	-21.55827000
146.03999911	-12.57363000
146.07999911	0.00000000
146.11999911	12.57363000
146.15999911	28.74844000
146.19999911	43.12265000
146.23999911	55.70238000
146.27999911	71.87719000
146.31999911	86.25141000
146.35999911	102.42620000
146.39999911	116.80040000
146.43999911	132.97520000
146.47999911	143.75440000
146.51999911	150.94450000
146.55999911	156.33410000
146.59999911	150.94450000
146.63999911	141.95990000
146.67999911	132.97520000
146.71999911	120.39550000
146.75999911	111.41090000
146.79999911	100.62560000
146.83999911	88.04590000
146.87999911	75.47227000
146.91999911	62.89254000
146.95999911	52.10730000
146.99999911	41.32816000
147.03999911	30.54292000
147.07999911	21.55827000
147.11999911	14.37422000
147.15999911	3.58897700
147.19999911	-5.38956800
147.23999911	-17.96930000
147.27999910	-32.34352000
147.31999910	-44.92325000
147.35999910	-57.50298000
147.39999910	-64.68703000
147.43999910	-73.67168000
147.47999910	-84.45692000
147.51999910	-91.64098000
147.55999910	-97.03055000
147.59999910	-98.83114000
147.63999910	-95.23605000
147.67999910	-95.23605000
147.71999910	-89.84650000
147.75999910	-88.04590000
147.79999910	-86.25141000
147.83999910	-86.25141000
147.87999910	-84.45692000
147.91999910	-82.65633000
147.95999910	-80.86184000
147.99999910	-80.86184000
148.03999910	-79.06125000
148.07999910	-79.06125000
148.11999910	-77.26676000
148.15999910	-75.47227000
148.19999910	-73.67168000
148.23999910	-68.28211000
148.27999910	-62.89254000
148.31999910	-57.50298000
148.35999910	-48.51222000
148.39999910	-39.52757000
148.43999910	-32.34352000
148.47999910	-23.35887000
148.51999910	-10.77914000
148.55999910	0.00000000
148.59999910	12.57363000
148.63999910	26.95395000
148.67999910	41.32816000
148.71999910	55.70238000
148.75999910	68.28211000
148.79999910	82.65633000
148.83999910	98.83114000
148.87999910	113.20540000
148.91999909	127.57960000
148.95999909	140.15930000
148.99999909	145.54890000
149.03999909	149.14400000
149.07999909	147.34950000
149.11999909	140.15930000
149.15999909	131.17470000
149.19999909	120.39550000
149.23999909	111.41090000
149.27999909	100.62560000
149.31999909	88.04590000
149.35999909	77.26676000
149.39999909	64.68703000
149.43999909	53.90789000
149.47999909	44.92325000
149.51999909	34.13800000
149.55999909	25.15336000
149.59999909	14.37422000
149.63999909	5.38956800
149.67999909	-5.38956800
149.71999909	-16.16870000
149.75999909	-26.95395000
149.79999909	-37.73308000
149.83999909	-50.31281000
149.87999909	-62.89254000
149.91999909	-71.87719000
149.95999909	-82.65633000
149.99999909	-91.64098000
150.03999909	-97.03055000
150.07999909	-98.83114000
150.11999909	-98.83114000
150.15999909	-93.44157000
150.19999909	-86.25141000
150.23999909	-80.86184000
150.27999909	-79.06125000
150.31999909	-77.26676000
150.35999909	-75.47227000
150.39999909	-75.47227000
150.43999909	-75.47227000
150.47999909	-75.47227000
150.51999909	-75.47227000
150.55999908	-77.26676000
150.59999908	-77.26676000
150.63999908	-75.47227000
150.67999908	-73.67168000
150.71999908	-68.28211000
150.75999908	-66.48762000
150.79999908	-68.28211000
150.83999908	-50.31281000
150.87999908	-34.13800000
150.91999908	-32.34352000
150.95999908	-28.74844000
150.99999908	-17.96930000
151.03999908	-5.38956800
151.07999908	10.77914000
151.11999908	19.76379000
151.15999908	35.93859000
151.19999908	55.70238000
151.23999908	68.28211000
151.27999908	84.45692000
151.31999908	104.22070000
151.35999908	120.39550000
151.39999908	134.76970000
151.43999908	147.34950000
151.47999908	158.12860000
151.51999908	158.12860000
151.55999908	152.73900000
151.59999908	143.75440000
151.63999908	134.76970000
151.67999908	122.19000000
151.71999908	111.41090000
151.75999908	100.62560000
151.79999908	89.84650000
151.83999908	79.06125000
151.87999908	64.68703000
151.91999908	55.70238000
151.95999908	46.71774000
151.99999908	35.93859000
152.03999908	26.95395000
152.07999908	19.76379000
152.11999908	8.98464900
152.15999908	-5.38956800
152.19999908	-16.16870000
152.23999907	-25.15336000
152.27999907	-39.52757000
152.31999907	-53.90789000
152.35999907	-62.89254000
152.39999907	-71.87719000
152.43999907	-80.86184000
152.47999907	-89.84650000
152.51999907	-95.23605000
152.55999907	-98.83114000
152.59999907	-95.23605000
152.63999907	-91.64098000
152.67999907	-86.25141000
152.71999907	-82.65633000
152.75999907	-79.06125000
152.79999907	-79.06125000
152.83999907	-79.06125000
152.87999907	-77.26676000
152.91999907	-77.26676000
152.95999907	-77.26676000
152.99999907	-77.26676000
153.03999907	-79.06125000
153.07999907	-79.06125000
153.11999907	-77.26676000
153.15999907	-73.67168000
153.19999907	-70.07660000
153.23999907	-64.68703000
153.27999907	-57.50298000
153.31999907	-48.51222000
153.35999907	-39.52757000
153.39999907	-30.54292000
153.43999907	-21.55827000
153.47999907	-10.77914000
153.51999907	0.00000000
153.55999907	12.57363000
153.59999907	26.95395000
153.63999907	41.32816000
153.67999907	55.70238000
153.71999907	70.07660000
153.75999907	82.65633000
153.79999907	98.83114000
153.83999907	115.00600000
153.87999906	129.38020000
153.91999906	140.15930000
153.95999906	149.14400000
153.99999906	152.73900000
154.03999906	149.14400000
154.07999906	141.95990000
154.11999906	132.97520000
154.15999906	122.19000000
154.19999906	113.20540000
154.23999906	102.42620000
154.27999906	91.64098000
154.31999906	79.06125000
154.35999906	70.07660000
154.39999906	57.50298000
154.43999906	46.71774000
154.47999906	35.93859000
154.51999906	26.95395000
154.55999906	16.16870000
154.59999906	7.18405700
154.63999906	-5.38956800
154.67999906	-16.16870000
154.71999906	-26.95395000
154.75999906	-37.73308000
154.79999906	-50.31281000
154.83999906	-59.29746000
154.87999906	-70.07660000
154.91999906	-80.86184000
154.95999906	-86.25141000
154.99999906	-93.44157000
155.03999906	-95.23605000
155.07999906	-97.03055000
155.11999906	-93.44157000
155.15999906	-89.84650000
155.19999906	-84.45692000
155.23999906	-82.65633000
155.27999906	-80.86184000
155.31999906	-80.86184000
155.35999906	-79.06125000
155.39999906	-79.06125000
155.43999906	-79.06125000
155.47999906	-79.06125000
155.51999905	-79.06125000
155.55999905	-79.06125000
155.59999905	-77.26676000
155.63999905	-79.06125000
155.67999905	-75.47227000
155.71999905	-68.28211000
155.75999905	-57.50298000
155.79999905	-50.31281000
155.83999905	-41.32816000
155.87999905	-35.93859000
155.91999905	-25.15336000
155.95999905	-14.37422000
155.99999905	-1.79448800
156.03999905	10.77914000
156.07999905	25.15336000
156.11999905	39.52757000
156.15999905	53.90789000
156.19999905	68.28211000
156.23999905	80.86184000
156.27999905	93.44157000
156.31999905	107.81580000
156.35999905	122.19000000
156.39999905	134.76970000
156.43999905	143.75440000
156.47999905	145.54890000
156.51999905	145.54890000
156.55999905	143.75440000
156.59999905	136.56420000
156.63999905	127.57960000
156.67999905	116.80040000
156.71999905	106.01520000
156.75999905	97.03055000
156.79999905	82.65633000
156.83999905	68.28211000
156.87999905	55.70238000
156.91999905	44.92325000
156.95999905	34.13800000
156.99999905	26.95395000
157.03999905	16.16870000
157.07999905	5.38956800
157.11999905	-5.38956800
157.15999904	-14.37422000
157.19999904	-23.35887000
157.23999904	-34.13800000
157.27999904	-46.71774000
157.31999904	-57.50298000
157.35999904	-66.48762000
157.39999904	-77.26676000
157.43999904	-86.25141000
157.47999904	-93.44157000
157.51999904	-95.23605000
157.55999904	-95.23605000
157.59999904	-91.64098000
157.63999904	-88.04590000
157.67999904	-84.45692000
157.71999904	-80.86184000
157.75999904	-79.06125000
157.79999904	-77.26676000
157.83999904	-75.47227000
157.87999904	-75.47227000
157.91999904	-75.47227000
157.95999904	-77.26676000
157.99999904	-77.26676000
158.03999904	-79.06125000
158.07999904	-75.47227000
158.11999904	-73.67168000
158.15999904	-70.07660000
158.19999904	-64.68703000
158.23999904	-59.29746000
158.27999904	-52.10730000
158.31999904	-43.12265000
158.35999904	-35.93859000
158.39999904	-26.95395000
158.43999904	-16.16870000
158.47999904	-7.18405700
158.51999904	7.18405700
158.55999904	21.55827000
158.59999904	35.93859000
158.63999904	50.31281000
158.67999904	66.48762000
158.71999904	82.65633000
158.75999904	98.83114000
158.79999903	115.00600000
158.83999903	131.17470000
158.87999903	143.75440000
158.91999903	150.94450000
158.95999903	154.53350000
158.99999903	152.73900000
159.03999903	147.34950000
159.07999903	136.56420000
159.11999903	125.78510000
159.15999903	115.00600000
159.19999903	104.22070000
159.23999903	93.44157000
159.27999903	80.86184000
159.31999903	70.07660000
159.35999903	59.29746000
159.39999903	48.51222000
159.43999903	37.73308000
159.47999903	28.74844000
159.51999903	19.76379000
159.55999903	10.77914000
159.59999903	0.00000000
159.63999903	-12.57363000
159.67999903	-23.35887000
159.71999903	-35.93859000
159.75999903	-46.71774000
159.79999903	-59.29746000
159.83999903	-70.07660000
159.87999903	-79.06125000
159.91999903	-86.25141000
159.95999903	-93.44157000
159.99999903	-98.83114000
160.03999903	-100.62560000
160.07999903	-98.83114000
160.11999903	-95.23605000
160.15999903	-88.04590000
160.19999903	-84.45692000
160.23999903	-79.06125000
160.27999903	-77.26676000
160.31999903	-75.47227000
160.35999903	-73.67168000
160.39999903	-73.67168000
160.43999902	-75.47227000
160.47999902	-75.47227000
160.51999902	-75.47227000
160.55999902	-71.87719000
160.59999902	-73.67168000
160.63999902	-80.86184000
160.67999902	-68.28211000
160.71999902	-53.90789000
160.75999902	-52.10730000
160.79999902	-46.71774000
160.83999902	-39.52757000
160.87999902	-25.15336000
160.91999902	-14.37422000
160.95999902	-5.38956800
160.99999902	8.98464900
161.03999902	25.15336000
161.07999902	39.52757000
161.11999902	53.90789000
161.15999902	70.07660000
161.19999902	82.65633000
161.23999902	97.03055000
161.27999902	109.61030000
161.31999902	125.78510000
161.35999902	138.36480000
161.39999902	145.54890000
161.43999902	149.14400000
161.47999902	149.14400000
161.51999902	143.75440000
161.55999902	132.97520000
161.59999902	123.99060000
161.63999902	115.00600000
161.67999902	104.22070000
161.71999902	93.44157000
161.75999902	84.45692000
161.79999902	71.87719000
161.83999902	59.29746000
161.87999902	50.31281000
161.91999902	41.32816000
161.95999902	28.74844000
161.99999902	17.96930000
162.03999902	8.98464900
162.07999901	0.00000000
162.11999901	-8.98464900
162.15999901	-23.35887000
162.19999901	-34.13800000
162.23999901	-44.92325000
162.27999901	-55.70238000
162.31999901	-70.07660000
162.35999901	-95.23605000
162.39999901	-123.99060000
162.43999901	-123.99060000
162.47999901	-113.20540000
162.51999901	-107.81580000
162.55999901	-97.03055000
162.59999901	-82.65633000
162.63999901	-57.50298000
162.67999901	-37.73308000
162.71999901	-35.93859000
162.75999901	-55.70238000
162.79999901	-70.07660000
162.83999901	-73.67168000
162.87999901	-79.06125000
162.91999901	-91.64098000
162.95999901	-104.22070000
162.99999901	-104.22070000
163.03999901	-93.44157000
163.07999901	-86.25141000
163.11999901	-84.45692000
163.15999901	-84.45692000
163.19999901	-75.47227000
163.23999901	-64.68703000
163.27999901	-53.90789000
163.31999901	-46.71774000
163.35999901	-39.52757000
163.39999901	-28.74844000
163.43999901	-10.77914000
163.47999901	5.38956800
163.51999901	19.76379000
163.55999901	35.93859000
163.59999901	53.90789000
163.63999901	73.67168000
163.67999901	91.64098000
163.71999900	106.01520000
163.75999900	115.00600000
163.79999900	120.39550000
163.83999900	131.17470000
163.87999900	136.56420000
163.91999900	138.36480000
163.95999900	132.97520000
163.99999900	129.38020000
164.03999900	125.78510000
164.07999900	122.19000000
164.11999900	115.00600000
164.15999900	106.01520000
164.19999900	98.83114000
164.23999900	89.84650000
164.27999900	77.26676000
164.31999900	64.68703000
164.35999900	50.31281000
164.39999900	41.32816000
164.43999900	30.54292000
164.47999900	23.35887000
164.51999900	16.16870000
164.55999900	8.98464900
164.59999900	0.00000000
164.63999900	-7.18405700
164.67999900	-21.55827000
164.71999900	-34.13800000
164.75999900	-50.31281000
164.79999900	-64.68703000
164.83999900	-77.26676000
164.87999900	-88.04590000
164.91999900	-98.83114000
164.95999900	-104.22070000
164.99999900	-107.81580000
165.03999900	-100.62560000
165.07999900	-95.23605000
165.11999900	-88.04590000
165.15999900	-82.65633000
165.19999900	-79.06125000
165.23999900	-77.26676000
165.27999900	-73.67168000
165.31999900	-73.67168000
165.35999900	-75.47227000
165.39999899	-75.47227000
165.43999899	-77.26676000
165.47999899	-80.86184000
165.51999899	-82.65633000
165.55999899	-79.06125000
165.59999899	-71.87719000
165.63999899	-68.28211000
165.67999899	-62.89254000
165.71999899	-57.50298000
165.75999899	-50.31281000
165.79999899	-43.12265000
165.83999899	-35.93859000
165.87999899	-28.74844000
165.91999899	-19.76379000
165.95999899	-10.77914000
165.99999899	3.58897700
166.03999899	21.55827000
166.07999899	35.93859000
166.11999899	55.70238000
166.15999899	73.67168000
166.19999899	91.64098000
166.23999899	109.61030000
166.27999899	127.57960000
166.31999899	141.95990000
166.35999899	152.73900000
166.39999899	159.92920000
166.43999899	159.92920000
166.47999899	154.53350000
166.51999899	145.54890000
166.55999899	134.76970000
166.59999899	122.19000000
166.63999899	109.61030000
166.67999899	98.83114000
166.71999899	88.04590000
166.75999899	79.06125000
166.79999899	70.07660000
166.83999899	57.50298000
166.87999899	46.71774000
166.91999899	35.93859000
166.95999899	26.95395000
166.99999899	17.96930000
167.03999898	7.18405700
167.07999898	-3.58897700
167.11999898	-14.37422000
167.15999898	-26.95395000
167.19999898	-37.73308000
167.23999898	-50.31281000
167.27999898	-61.09195000
167.31999898	-70.07660000
167.35999898	-79.06125000
167.39999898	-88.04590000
167.43999898	-93.44157000
167.47999898	-97.03055000
167.51999898	-98.83114000
167.55999898	-98.83114000
167.59999898	-95.23605000
167.63999898	-91.64098000
167.67999898	-88.04590000
167.71999898	-82.65633000
167.75999898	-79.06125000
167.79999898	-77.26676000
167.83999898	-77.26676000
167.87999898	-75.47227000
167.91999898	-75.47227000
167.95999898	-77.26676000
167.99999898	-75.47227000
168.03999898	-75.47227000
168.07999898	-71.87719000
168.11999898	-71.87719000
168.15999898	-64.68703000
168.19999898	-59.29746000
168.23999898	-52.10730000
168.27999898	-43.12265000
168.31999898	-35.93859000
168.35999898	-26.95395000
168.39999898	-16.16870000
168.43999898	-3.58897700
168.47999898	10.77914000
168.51999898	25.15336000
168.55999898	41.32816000
168.59999898	57.50298000
168.63999898	71.87719000
168.67999897	86.25141000
168.71999897	100.62560000
168.75999897	116.80040000
168.79999897	129.38020000
168.83999897	140.15930000
168.87999897	149.14400000
168.91999897	150.94450000
168.95999897	149.14400000
168.99999897	141.95990000
169.03999897	132.97520000
169.07999897	122.19000000
169.11999897	111.41090000
169.15999897	102.42620000
169.19999897	91.64098000
169.23999897	80.86184000
169.27999897	70.07660000
169.31999897	57.50298000
169.35999897	48.51222000
169.39999897	35.93859000
169.43999897	28.74844000
169.47999897	19.76379000
169.51999897	8.98464900
169.55999897	-1.79448800
169.59999897	-12.57363000
169.63999897	-23.35887000
169.67999897	-35.93859000
169.71999897	-44.92325000
169.75999897	-57.50298000
169.79999897	-68.28211000
169.83999897	-79.06125000
169.87999897	-86.25141000
169.91999897	-93.44157000
169.95999897	-97.03055000
169.99999897	-98.83114000
170.03999897	-93.44157000
170.07999897	-89.84650000
170.11999897	-86.25141000
170.15999897	-82.65633000
170.19999897	-82.65633000
170.23999897	-80.86184000
170.27999897	-80.86184000
170.31999896	-80.86184000
170.35999896	-79.06125000
170.39999896	-79.06125000
170.43999896	-80.86184000
170.47999896	-91.64098000
170.51999896	-80.86184000
170.55999896	-71.87719000
170.59999896	-71.87719000
170.63999896	-71.87719000
170.67999896	-64.68703000
170.71999896	-53.90789000
170.75999896	-43.12265000
170.79999896	-35.93859000
170.83999896	-28.74844000
170.87999896	-16.16870000
170.91999896	-5.38956800
170.95999896	7.18405700
170.99999896	23.35887000
171.03999896	37.73308000
171.07999896	50.31281000
171.11999896	66.48762000
171.15999896	80.86184000
171.19999896	97.03055000
171.23999896	109.61030000
171.27999896	123.99060000
171.31999896	136.56420000
171.35999896	145.54890000
171.39999896	150.94450000
171.43999896	149.14400000
171.47999896	145.54890000
171.51999896	136.56420000
171.55999896	127.57960000
171.59999896	116.80040000
171.63999896	104.22070000
171.67999896	95.23605000
171.71999896	86.25141000
171.75999896	73.67168000
171.79999896	61.09195000
171.83999896	50.31281000
171.87999896	43.12265000
171.91999896	32.34352000
171.95999895	21.55827000
171.99999895	12.57363000
172.03999895	1.79448800
172.07999895	-8.98464900
172.11999895	-21.55827000
172.15999895	-32.34352000
172.19999895	-43.12265000
172.23999895	-53.90789000
172.27999895	-66.48762000
172.31999895	-75.47227000
172.35999895	-86.25141000
172.39999895	-93.44157000
172.43999895	-97.03055000
172.47999895	-98.83114000
172.51999895	-95.23605000
172.55999895	-89.84650000
172.59999895	-84.45692000
172.63999895	-80.86184000
172.67999895	-79.06125000
172.71999895	-79.06125000
172.75999895	-79.06125000
172.79999895	-79.06125000
172.83999895	-79.06125000
172.87999895	-79.06125000
172.91999895	-79.06125000
172.95999895	-79.06125000
172.99999895	-75.47227000
173.03999895	-71.87719000
173.07999895	-70.07660000
173.11999895	-64.68703000
173.15999895	-57.50298000
173.19999895	-50.31281000
173.23999895	-44.92325000
173.27999895	-35.93859000
173.31999895	-28.74844000
173.35999895	-21.55827000
173.39999895	-10.77914000
173.43999895	0.00000000
173.47999895	14.37422000
173.51999895	28.74844000
173.55999895	44.92325000
173.59999894	61.09195000
173.63999894	77.26676000
173.67999894	93.44157000
173.71999894	111.41090000
173.75999894	125.78510000
173.79999894	141.95990000
173.83999894	150.94450000
173.87999894	156.33410000
173.91999894	156.33410000
173.95999894	149.14400000
173.99999894	138.36480000
174.03999894	127.57960000
174.07999894	115.00600000
174.11999894	106.01520000
174.15999894	95.23605000
174.19999894	84.45692000
174.23999894	73.67168000
174.27999894	62.89254000
174.31999894	53.90789000
174.35999894	43.12265000
174.39999894	34.13800000
174.43999894	25.15336000
174.47999894	14.37422000
174.51999894	5.38956800
174.55999894	-5.38956800
174.59999894	-17.96930000
174.63999894	-30.54292000
174.67999894	-41.32816000
174.71999894	-52.10730000
174.75999894	-64.68703000
174.79999894	-73.67168000
174.83999894	-82.65633000
174.87999894	-89.84650000
174.91999894	-93.44157000
174.95999894	-97.03055000
174.99999894	-95.23605000
175.03999894	-88.04590000
175.07999894	-82.65633000
175.11999894	-77.26676000
175.15999894	-73.67168000
175.19999894	-71.87719000
175.23999893	-71.87719000
175.27999893	-71.87719000
175.31999893	-77.26676000
175.35999893	-77.26676000
175.39999893	-75.47227000
175.43999893	-73.67168000
175.47999893	-73.67168000
175.51999893	-73.67168000
175.55999893	-73.67168000
175.59999893	-68.28211000
175.63999893	-61.09195000
175.67999893	-53.90789000
175.71999893	-46.71774000
175.75999893	-37.73308000
175.79999893	-30.54292000
175.83999893	-21.55827000
175.87999893	-8.98464900
175.91999893	0.00000000
175.95999893	14.37422000
175.99999893	32.34352000
176.03999893	48.51222000
176.07999893	62.89254000
176.11999893	77.26676000
176.15999893	93.44157000
176.19999893	111.41090000
176.23999893	125.78510000
176.27999893	140.15930000
176.31999893	149.14400000
176.35999893	158.12860000
176.39999893	156.33410000
176.43999893	150.94450000
176.47999893	138.36480000
176.51999893	127.57960000
176.55999893	115.00600000
176.59999893	106.01520000
176.63999893	98.83114000
176.67999893	88.04590000
176.71999893	77.26676000
176.75999893	64.68703000
176.79999893	55.70238000
176.83999893	44.92325000
176.87999893	35.93859000
176.91999892	26.95395000
176.95999892	16.16870000
176.99999892	5.38956800
177.03999892	-5.38956800
177.07999892	-17.96930000
177.11999892	-30.54292000
177.15999892	-43.12265000
177.19999892	-52.10730000
177.23999892	-64.68703000
177.27999892	-73.67168000
177.31999892	-82.65633000
177.35999892	-88.04590000
177.39999892	-93.44157000
177.43999892	-91.64098000
177.47999892	-88.04590000
177.51999892	-82.65633000
177.55999892	-79.06125000
177.59999892	-75.47227000
177.63999892	-73.67168000
177.67999892	-73.67168000
177.71999892	-73.67168000
177.75999892	-75.47227000
177.79999892	-75.47227000
177.83999892	-75.47227000
177.87999892	-75.47227000
177.91999892	-75.47227000
177.95999892	-75.47227000
177.99999892	-73.67168000
178.03999892	-70.07660000
178.07999892	-66.48762000
178.11999892	-59.29746000
178.15999892	-52.10730000
178.19999892	-43.12265000
178.23999892	-37.73308000
178.27999892	-28.74844000
178.31999892	-17.96930000
178.35999892	-7.18405700
178.39999892	5.38956800
178.43999892	17.96930000
178.47999892	34.13800000
178.51999892	50.31281000
178.55999891	64.68703000
178.59999891	79.06125000
178.63999891	97.03055000
178.67999891	111.41090000
178.71999891	127.57960000
178.75999891	141.95990000
178.79999891	150.94450000
178.83999891	156.33410000
178.87999891	154.53350000
178.91999891	147.34950000
178.95999891	136.56420000
178.99999891	127.57960000
179.03999891	115.00600000
179.07999891	106.01520000
179.11999891	97.03055000
179.15999891	88.04590000
179.19999891	77.26676000
179.23999891	68.28211000
179.27999891	57.50298000
179.31999891	48.51222000
179.35999891	37.73308000
179.39999891	28.74844000
179.43999891	19.76379000
179.47999891	8.98464900
179.51999891	-3.58897700
179.55999891	-14.37422000
179.59999891	-26.95395000
179.63999891	-39.52757000
179.67999891	-52.10730000
179.71999891	-62.89254000
179.75999891	-71.87719000
179.79999891	-82.65633000
179.83999891	-88.04590000
179.87999891	-95.23605000
179.91999891	-100.62560000
179.95999891	-100.62560000
179.99999891	-100.62560000
180.03999891	-93.44157000
180.07999891	-88.04590000
180.11999891	-80.86184000
180.15999891	-77.26676000
180.19999890	-73.67168000
180.23999890	-70.07660000
180.27999890	-79.06125000
180.31999890	-79.06125000
180.35999890	-68.28211000
180.39999890	-66.48762000
180.43999890	-73.67168000
180.47999890	-73.67168000
180.51999890	-73.67168000
180.55999890	-64.68703000
180.59999890	-64.68703000
180.63999890	-59.29746000
180.67999890	-50.31281000
180.71999890	-41.32816000
180.75999890	-32.34352000
180.79999890	-21.55827000
180.83999890	-10.77914000
180.87999890	1.79448800
180.91999890	14.37422000
180.95999890	30.54292000
180.99999890	48.51222000
181.03999890	62.89254000
181.07999890	75.47227000
181.11999890	89.84650000
181.15999890	104.22070000
181.19999890	118.59490000
181.23999890	131.17470000
181.27999890	141.95990000
181.31999890	149.14400000
181.35999890	150.94450000
181.39999890	147.34950000
181.43999890	140.15930000
181.47999890	131.17470000
181.51999890	120.39550000
181.55999890	107.81580000
181.59999890	100.62560000
181.63999890	91.64098000
181.67999890	79.06125000
181.71999890	64.68703000
181.75999890	55.70238000
181.79999890	46.71774000
181.83999889	35.93859000
181.87999889	25.15336000
181.91999889	14.37422000
181.95999889	5.38956800
181.99999889	-3.58897700
182.03999889	-14.37422000
182.07999889	-28.74844000
182.11999889	-37.73308000
182.15999889	-50.31281000
182.19999889	-59.29746000
182.23999889	-70.07660000
182.27999889	-79.06125000
182.31999889	-88.04590000
182.35999889	-95.23605000
182.39999889	-100.62560000
182.43999889	-100.62560000
182.47999889	-104.22070000
182.51999889	-91.64098000
182.55999889	-88.04590000
182.59999889	-79.06125000
182.63999889	-80.86184000
182.67999889	-86.25141000
182.71999889	-93.44157000
182.75999889	-93.44157000
182.79999889	-91.64098000
182.83999889	-82.65633000
182.87999889	-71.87719000
182.91999889	-62.89254000
182.95999889	-50.31281000
182.99999889	-37.73308000
183.03999889	-34.13800000
183.07999889	-35.93859000
183.11999889	-43.12265000
183.15999889	-46.71774000
183.19999889	-46.71774000
183.23999889	-46.71774000
183.27999889	-41.32816000
183.31999889	-35.93859000
183.35999889	-19.76379000
183.39999889	-1.79448800
183.43999889	16.16870000
183.47999888	32.34352000
183.51999888	48.51222000
183.55999888	64.68703000
183.59999888	80.86184000
183.63999888	98.83114000
183.67999888	115.00600000
183.71999888	129.38020000
183.75999888	141.95990000
183.79999888	154.53350000
183.83999888	158.12860000
183.87999888	154.53350000
183.91999888	147.34950000
183.95999888	140.15930000
183.99999888	131.17470000
184.03999888	122.19000000
184.07999888	111.41090000
184.11999888	98.83114000
184.15999888	82.65633000
184.19999888	68.28211000
184.23999888	52.10730000
184.27999888	39.52757000
184.31999888	28.74844000
184.35999888	19.76379000
184.39999888	12.57363000
184.43999888	5.38956800
184.47999888	-3.58897700
184.51999888	-14.37422000
184.55999888	-25.15336000
184.59999888	-35.93859000
184.63999888	-48.51222000
184.67999888	-59.29746000
184.71999888	-71.87719000
184.75999888	-79.06125000
184.79999888	-86.25141000
184.83999888	-91.64098000
184.87999888	-93.44157000
184.91999888	-95.23605000
184.95999888	-93.44157000
184.99999888	-89.84650000
185.03999888	-86.25141000
185.07999888	-80.86184000
185.11999887	-77.26676000
185.15999887	-80.86184000
185.19999887	-75.47227000
185.23999887	-73.67168000
185.27999887	-71.87719000
185.31999887	-73.67168000
185.35999887	-77.26676000
185.39999887	-75.47227000
185.43999887	-75.47227000
185.47999887	-73.67168000
185.51999887	-71.87719000
185.55999887	-66.48762000
185.59999887	-59.29746000
185.63999887	-52.10730000
185.67999887	-44.92325000
185.71999887	-37.73308000
185.75999887	-28.74844000
185.79999887	-16.16870000
185.83999887	-7.18405700
185.87999887	7.18405700
185.91999887	21.55827000
185.95999887	35.93859000
185.99999887	53.90789000
186.03999887	68.28211000
186.07999887	84.45692000
186.11999887	100.62560000
186.15999887	116.80040000
186.19999887	129.38020000
186.23999887	141.95990000
186.27999887	150.94450000
186.31999887	156.33410000
186.35999887	149.14400000
186.39999887	141.95990000
186.43999887	131.17470000
186.47999887	122.19000000
186.51999887	111.41090000
186.55999887	100.62560000
186.59999887	91.64098000
186.63999887	82.65633000
186.67999887	71.87719000
186.71999887	57.50298000
186.75999886	48.51222000
186.79999886	39.52757000
186.83999886	28.74844000
186.87999886	19.76379000
186.91999886	10.77914000
186.95999886	0.00000000
186.99999886	-12.57363000
187.03999886	-25.15336000
187.07999886	-37.73308000
187.11999886	-50.31281000
187.15999886	-61.09195000
187.19999886	-70.07660000
187.23999886	-79.06125000
187.27999886	-86.25141000
187.31999886	-95.23605000
187.35999886	-98.83114000
187.39999886	-100.62560000
187.43999886	-100.62560000
187.47999886	-102.42620000
187.51999886	-97.03055000
187.55999886	-91.64098000
187.59999886	-86.25141000
187.63999886	-80.86184000
187.67999886	-77.26676000
187.71999886	-73.67168000
187.75999886	-71.87719000
187.79999886	-71.87719000
187.83999886	-71.87719000
187.87999886	-73.67168000
187.91999886	-73.67168000
187.95999886	-71.87719000
187.99999886	-70.07660000
188.03999886	-66.48762000
188.07999886	-62.89254000
188.11999886	-57.50298000
188.15999886	-50.31281000
188.19999886	-43.12265000
188.23999886	-32.34352000
188.27999886	-21.55827000
188.31999886	-8.98464900
188.35999886	3.58897700
188.39999886	17.96930000
188.43999885	32.34352000
188.47999885	48.51222000
188.51999885	62.89254000
188.55999885	79.06125000
188.59999885	93.44157000
188.63999885	109.61030000
188.67999885	122.19000000
188.71999885	136.56420000
188.75999885	145.54890000
188.79999885	149.14400000
188.83999885	150.94450000
188.87999885	143.75440000
188.91999885	134.76970000
188.95999885	123.99060000
188.99999885	111.41090000
189.03999885	100.62560000
189.07999885	89.84650000
189.11999885	79.06125000
189.15999885	66.48762000
189.19999885	55.70238000
189.23999885	44.92325000
189.27999885	34.13800000
189.31999885	26.95395000
189.35999885	17.96930000
189.39999885	7.18405700
189.43999885	0.00000000
189.47999885	-10.77914000
189.51999885	-21.55827000
189.55999885	-34.13800000
189.59999885	-44.92325000
189.63999885	-57.50298000
189.67999885	-66.48762000
189.71999885	-77.26676000
189.75999885	-86.25141000
189.79999885	-93.44157000
189.83999885	-97.03055000
189.87999885	-98.83114000
189.91999885	-97.03055000
189.95999885	-93.44157000
189.99999885	-89.84650000
190.03999885	-79.06125000
190.07999884	-71.87719000
190.11999884	-79.06125000
190.15999884	-80.86184000
190.19999884	-68.28211000
190.23999884	-64.68703000
190.27999884	-73.67168000
190.31999884	-77.26676000
190.35999884	-79.06125000
190.39999884	-73.67168000
190.43999884	-75.47227000
190.47999884	-75.47227000
190.51999884	-70.07660000
190.55999884	-64.68703000
190.59999884	-57.50298000
190.63999884	-52.10730000
190.67999884	-37.73308000
190.71999884	-30.54292000
190.75999884	-21.55827000
190.79999884	-8.98464900
190.83999884	3.58897700
190.87999884	17.96930000
190.91999884	32.34352000
190.95999884	48.51222000
190.99999884	64.68703000
191.03999884	79.06125000
191.07999884	95.23605000
191.11999884	113.20540000
191.15999884	129.38020000
191.19999884	141.95990000
191.23999884	152.73900000
191.27999884	159.92920000
191.31999884	156.33410000
191.35999884	149.14400000
191.39999884	136.56420000
191.43999884	125.78510000
191.47999884	115.00600000
191.51999884	102.42620000
191.55999884	89.84650000
191.59999884	80.86184000
191.63999884	71.87719000
191.67999884	59.29746000
191.71999883	48.51222000
191.75999883	39.52757000
191.79999883	30.54292000
191.83999883	21.55827000
191.87999883	12.57363000
191.91999883	1.79448800
191.95999883	-8.98464900
191.99999883	-21.55827000
192.03999883	-34.13800000
192.07999883	-46.71774000
192.11999883	-57.50298000
192.15999883	-68.28211000
192.19999883	-77.26676000
192.23999883	-86.25141000
192.27999883	-91.64098000
192.31999883	-95.23605000
192.35999883	-95.23605000
192.39999883	-91.64098000
192.43999883	-86.25141000
192.47999883	-84.45692000
192.51999883	-80.86184000
192.55999883	-79.06125000
192.59999883	-79.06125000
192.63999883	-79.06125000
192.67999883	-79.06125000
192.71999883	-79.06125000
192.75999883	-79.06125000
192.79999883	-79.06125000
192.83999883	-79.06125000
192.87999883	-79.06125000
192.91999883	-75.47227000
192.95999883	-71.87719000
192.99999883	-66.48762000
193.03999883	-59.29746000
193.07999883	-50.31281000
193.11999883	-43.12265000
193.15999883	-34.13800000
193.19999883	-25.15336000
193.23999883	-14.37422000
193.27999883	-3.58897700
193.31999883	8.98464900
193.35999882	23.35887000
193.39999882	35.93859000
193.43999882	50.31281000
193.47999882	64.68703000
193.51999882	79.06125000
193.55999882	93.44157000
193.59999882	107.81580000
193.63999882	122.19000000
193.67999882	136.56420000
193.71999882	143.75440000
193.75999882	149.14400000
193.79999882	149.14400000
193.83999882	143.75440000
193.87999882	136.56420000
193.91999882	125.78510000
193.95999882	115.00600000
193.99999882	106.01520000
194.03999882	93.44157000
194.07999882	82.65633000
194.11999882	71.87719000
194.15999882	61.09195000
194.19999882	50.31281000
194.23999882	41.32816000
194.27999882	32.34352000
194.31999882	21.55827000
194.35999882	12.57363000
194.39999882	1.79448800
194.43999882	-7.18405700
194.47999882	-19.76379000
194.51999882	-30.54292000
194.55999882	-41.32816000
194.59999882	-53.90789000
194.63999882	-64.68703000
194.67999882	-75.47227000
194.71999882	-86.25141000
194.75999882	-93.44157000
194.79999882	-98.83114000
194.83999882	-100.62560000
194.87999882	-100.62560000
194.91999882	-93.44157000
194.95999882	-89.84650000
194.99999881	-88.04590000
195.03999881	-86.25141000
195.07999881	-80.86184000
195.11999881	-75.47227000
195.15999881	-77.26676000
195.19999881	-79.06125000
195.23999881	-80.86184000
195.27999881	-79.06125000
195.31999881	-79.06125000
195.35999881	-79.06125000
195.39999881	-75.47227000
195.43999881	-71.87719000
195.47999881	-66.48762000
195.51999881	-61.09195000
195.55999881	-53.90789000
195.59999881	-44.92325000
195.63999881	-37.73308000
195.67999881	-28.74844000
195.71999881	-17.96930000
195.75999881	-7.18405700
195.79999881	3.58897700
195.83999881	16.16870000
195.87999881	30.54292000
195.91999881	44.92325000
195.95999881	59.29746000
195.99999881	73.67168000
196.03999881	89.84650000
196.07999881	106.01520000
196.11999881	118.59490000
196.15999881	132.97520000
196.19999881	143.75440000
196.23999881	152.73900000
196.27999881	154.53350000
196.31999881	147.34950000
196.35999881	138.36480000
196.39999881	127.57960000
196.43999881	115.00600000
196.47999881	106.01520000
196.51999881	97.03055000
196.55999881	86.25141000
196.59999881	73.67168000
196.63999880	62.89254000
196.67999880	53.90789000
196.71999880	43.12265000
196.75999880	32.34352000
196.79999880	25.15336000
196.83999880	16.16870000
196.87999880	7.18405700
196.91999880	-5.38956800
196.95999880	-16.16870000
196.99999880	-28.74844000
197.03999880	-39.52757000
197.07999880	-50.31281000
197.11999880	-62.89254000
197.15999880	-71.87719000
197.19999880	-82.65633000
197.23999880	-89.84650000
197.27999880	-93.44157000
197.31999880	-95.23605000
197.35999880	-95.23605000
197.39999880	-93.44157000
197.43999880	-89.84650000
197.47999880	-86.25141000
197.51999880	-84.45692000
197.55999880	-80.86184000
197.59999880	-80.86184000
197.63999880	-77.26676000
197.67999880	-77.26676000
197.71999880	-73.67168000
197.75999880	-73.67168000
197.79999880	-75.47227000
197.83999880	-73.67168000
197.87999880	-73.67168000
197.91999880	-71.87719000
197.95999880	-68.28211000
197.99999880	-61.09195000
198.03999880	-55.70238000
198.07999880	-50.31281000
198.11999880	-41.32816000
198.15999880	-35.93859000
198.19999880	-25.15336000
198.23999880	-14.37422000
198.27999879	-3.58897700
198.31999879	10.77914000
198.35999879	26.95395000
198.39999879	43.12265000
198.43999879	57.50298000
198.47999879	73.67168000
198.51999879	89.84650000
198.55999879	106.01520000
198.59999879	120.39550000
198.63999879	134.76970000
198.67999879	145.54890000
198.71999879	152.73900000
198.75999879	152.73900000
198.79999879	149.14400000
198.83999879	140.15930000
198.87999879	129.38020000
198.91999879	118.59490000
198.95999879	109.61030000
198.99999879	100.62560000
199.03999879	89.84650000
199.07999879	77.26676000
199.11999879	66.48762000
199.15999879	55.70238000
199.19999879	46.71774000
199.23999879	35.93859000
199.27999879	26.95395000
199.31999879	17.96930000
199.35999879	7.18405700
199.39999879	-3.58897700
199.43999879	-14.37422000
199.47999879	-26.95395000
199.51999879	-37.73308000
199.55999879	-48.51222000
199.59999879	-59.29746000
199.63999879	-70.07660000
199.67999879	-79.06125000
199.71999879	-88.04590000
199.75999879	-91.64098000
199.79999879	-97.03055000
199.83999879	-93.44157000
199.87999879	-95.23605000
199.91999878	-82.65633000
199.95999878	-88.04590000
199.99999878	-86.25141000
200.03999878	-71.87719000
200.07999878	-68.28211000
200.11999878	-75.47227000
