Time	Channel A
(us)	(mV)

0.00000000	-125.78510000
0.04000000	-127.57960000
0.08000000	-125.78510000
0.12000000	-123.99060000
0.16000000	-118.59490000
0.20000000	-113.20540000
0.24000000	-102.42620000
0.28000000	-93.44157000
0.32000000	-80.86184000
0.36000000	-70.07660000
0.40000000	-55.70238000
0.44000000	-43.12265000
0.48000000	-28.74844000
0.52000000	-14.37422000
0.56000000	-1.79448800
0.60000000	10.77914000
0.64000000	21.55827000
0.68000000	34.13800000
0.72000000	43.12265000
0.76000000	52.10730000
0.80000000	61.09195000
0.83999999	68.28211000
0.87999999	75.47227000
0.91999999	80.86184000
0.95999999	88.04590000
0.99999999	95.23605000
1.03999999	102.42620000
1.07999999	109.61030000
1.11999999	115.00600000
1.15999999	122.19000000
1.19999999	127.57960000
1.23999999	131.17470000
1.27999999	134.76970000
1.31999999	136.56420000
1.35999999	134.76970000
1.39999999	131.17470000
1.43999999	127.57960000
1.47999999	120.39550000
1.51999999	111.41090000
1.55999999	98.83114000
1.59999999	88.04590000
1.63999999	75.47227000
1.67999999	61.09195000
1.71999999	50.31281000
1.75999999	34.13800000
1.79999999	21.55827000
1.83999999	8.98464900
1.87999999	-3.58897700
1.91999999	-14.37422000
1.95999999	-23.35887000
1.99999999	-34.13800000
2.03999999	-41.32816000
2.07999999	-50.31281000
2.11999999	-55.70238000
2.15999999	-62.89254000
2.19999999	-70.07660000
2.23999999	-75.47227000
2.27999999	-80.86184000
2.31999999	-86.25141000
2.35999999	-93.44157000
2.39999999	-100.62560000
2.43999999	-106.01520000
2.47999998	-109.61030000
2.51999998	-116.80040000
2.55999998	-120.39550000
2.59999998	-123.99060000
2.63999998	-125.78510000
2.67999998	-125.78510000
2.71999998	-125.78510000
2.75999998	-123.99060000
2.79999998	-118.59490000
2.83999998	-113.20540000
2.87999998	-106.01520000
2.91999998	-95.23605000
2.95999998	-84.45692000
2.99999998	-71.87719000
3.03999998	-59.29746000
3.07999998	-44.92325000
3.11999998	-32.34352000
3.15999998	-17.96930000
3.19999998	-5.38956800
3.23999998	7.18405700
3.27999998	19.76379000
3.31999998	28.74844000
3.35999998	39.52757000
3.39999998	48.51222000
3.43999998	57.50298000
3.47999998	64.68703000
3.51999998	71.87719000
3.55999998	77.26676000
3.59999998	86.25141000
3.63999998	93.44157000
3.67999998	100.62560000
3.71999998	107.81580000
3.75999998	115.00600000
3.79999998	122.19000000
3.83999998	127.57960000
3.87999998	132.97520000
3.91999998	134.76970000
3.95999998	136.56420000
3.99999998	136.56420000
4.03999998	132.97520000
4.07999998	127.57960000
4.11999997	120.39550000
4.15999997	113.20540000
4.19999997	102.42620000
4.23999997	89.84650000
4.27999997	77.26676000
4.31999997	64.68703000
4.35999997	52.10730000
4.39999997	37.73308000
4.43999997	25.15336000
4.47999997	14.37422000
4.51999997	-5.38956800
4.55999997	-10.77914000
4.59999997	-16.16870000
4.63999997	-26.95395000
4.67999997	-39.52757000
4.71999997	-48.51222000
4.75999997	-53.90789000
4.79999997	-57.50298000
4.83999997	-66.48762000
4.87999997	-73.67168000
4.91999997	-79.06125000
4.95999997	-84.45692000
4.99999997	-91.64098000
5.03999997	-97.03055000
5.07999997	-102.42620000
5.11999997	-111.41090000
5.15999997	-115.00600000
5.19999997	-120.39550000
5.23999997	-123.99060000
5.27999997	-127.57960000
5.31999997	-129.38020000
5.35999997	-127.57960000
5.39999997	-125.78510000
5.43999997	-122.19000000
5.47999997	-115.00600000
5.51999997	-107.81580000
5.55999997	-98.83114000
5.59999997	-88.04590000
5.63999997	-75.47227000
5.67999997	-62.89254000
5.71999997	-50.31281000
5.75999996	-35.93859000
5.79999996	-21.55827000
5.83999996	-8.98464900
5.87999996	3.58897700
5.91999996	16.16870000
5.95999996	26.95395000
5.99999996	35.93859000
6.03999996	46.71774000
6.07999996	55.70238000
6.11999996	62.89254000
6.15999996	70.07660000
6.19999996	77.26676000
6.23999996	84.45692000
6.27999996	91.64098000
6.31999996	100.62560000
6.35999996	107.81580000
6.39999996	115.00600000
6.43999996	122.19000000
6.47999996	129.38020000
6.51999996	132.97520000
6.55999996	136.56420000
6.59999996	138.36480000
6.63999996	138.36480000
6.67999996	136.56420000
6.71999996	131.17470000
6.75999996	123.99060000
6.79999996	115.00600000
6.83999996	104.22070000
6.87999996	93.44157000
6.91999996	80.86184000
6.95999996	68.28211000
6.99999996	53.90789000
7.03999996	41.32816000
7.07999996	26.95395000
7.11999996	14.37422000
7.15999996	1.79448800
7.19999996	-10.77914000
7.23999996	-19.76379000
7.27999996	-28.74844000
7.31999996	-37.73308000
7.35999996	-44.92325000
7.39999996	-52.10730000
7.43999995	-59.29746000
7.47999995	-64.68703000
7.51999995	-71.87719000
7.55999995	-79.06125000
7.59999995	-84.45692000
7.63999995	-89.84650000
7.67999995	-97.03055000
7.71999995	-102.42620000
7.75999995	-107.81580000
7.79999995	-115.00600000
7.83999995	-118.59490000
7.87999995	-122.19000000
7.91999995	-125.78510000
7.95999995	-127.57960000
7.99999995	-127.57960000
8.03999995	-125.78510000
8.07999995	-122.19000000
8.11999995	-116.80040000
8.15999995	-109.61030000
8.19999995	-100.62560000
8.23999995	-89.84650000
8.27999995	-77.26676000
8.31999995	-64.68703000
8.35999995	-52.10730000
8.39999995	-37.73308000
8.43999995	-23.35887000
8.47999995	-10.77914000
8.51999995	1.79448800
8.55999995	14.37422000
8.59999995	26.95395000
8.63999995	35.93859000
8.67999995	44.92325000
8.71999995	53.90789000
8.75999995	61.09195000
8.79999995	68.28211000
8.83999995	75.47227000
8.87999995	80.86184000
8.91999995	88.04590000
8.95999995	97.03055000
8.99999995	104.22070000
9.03999995	111.41090000
9.07999994	118.59490000
9.11999994	125.78510000
9.15999994	129.38020000
9.19999994	134.76970000
9.23999994	136.56420000
9.27999994	136.56420000
9.31999994	136.56420000
9.35999994	131.17470000
9.39999994	120.39550000
9.43999994	115.00600000
9.47999994	107.81580000
9.51999994	98.83114000
9.55999994	84.45692000
9.59999994	71.87719000
9.63999994	55.70238000
9.67999994	43.12265000
9.71999994	28.74844000
9.75999994	17.96930000
9.79999994	5.38956800
9.83999994	-5.38956800
9.87999994	-17.96930000
9.91999994	-26.95395000
9.95999994	-35.93859000
9.99999994	-44.92325000
10.03999994	-52.10730000
10.07999994	-57.50298000
10.11999994	-64.68703000
10.15999994	-70.07660000
10.19999994	-77.26676000
10.23999994	-82.65633000
10.27999994	-88.04590000
10.31999994	-95.23605000
10.35999994	-100.62560000
10.39999994	-107.81580000
10.43999994	-113.20540000
10.47999994	-118.59490000
10.51999994	-122.19000000
10.55999994	-125.78510000
10.59999994	-127.57960000
10.63999994	-127.57960000
10.67999994	-125.78510000
10.71999993	-122.19000000
10.75999993	-118.59490000
10.79999993	-111.41090000
10.83999993	-102.42620000
10.87999993	-91.64098000
10.91999993	-80.86184000
10.95999993	-68.28211000
10.99999993	-53.90789000
11.03999993	-41.32816000
11.07999993	-28.74844000
11.11999993	-14.37422000
11.15999993	-1.79448800
11.19999993	12.57363000
11.23999993	23.35887000
11.27999993	34.13800000
11.31999993	43.12265000
11.35999993	52.10730000
11.39999993	61.09195000
11.43999993	68.28211000
11.47999993	73.67168000
11.51999993	80.86184000
11.55999993	88.04590000
11.59999993	95.23605000
11.63999993	102.42620000
11.67999993	109.61030000
11.71999993	116.80040000
11.75999993	123.99060000
11.79999993	129.38020000
11.83999993	132.97520000
11.87999993	136.56420000
11.91999993	136.56420000
11.95999993	136.56420000
11.99999993	132.97520000
12.03999993	127.57960000
12.07999993	118.59490000
12.11999993	109.61030000
12.15999993	98.83114000
12.19999993	86.25141000
12.23999993	73.67168000
12.27999993	59.29746000
12.31999993	46.71774000
12.35999992	32.34352000
12.39999992	19.76379000
12.43999992	7.18405700
12.47999992	-3.58897700
12.51999992	-14.37422000
12.55999992	-25.15336000
12.59999992	-34.13800000
12.63999992	-41.32816000
12.67999992	-50.31281000
12.71999992	-57.50298000
12.75999992	-62.89254000
12.79999992	-68.28211000
12.83999992	-73.67168000
12.87999992	-80.86184000
12.91999992	-86.25141000
12.95999992	-93.44157000
12.99999992	-98.83114000
13.03999992	-106.01520000
13.07999992	-111.41090000
13.11999992	-116.80040000
13.15999992	-120.39550000
13.19999992	-123.99060000
13.23999992	-127.57960000
13.27999992	-127.57960000
13.31999992	-125.78510000
13.35999992	-123.99060000
13.39999992	-118.59490000
13.43999992	-113.20540000
13.47999992	-104.22070000
13.51999992	-93.44157000
13.55999992	-82.65633000
13.59999992	-70.07660000
13.63999992	-57.50298000
13.67999992	-43.12265000
13.71999992	-30.54292000
13.75999992	-16.16870000
13.79999992	-3.58897700
13.83999992	7.18405700
13.87999992	21.55827000
13.91999992	30.54292000
13.95999992	41.32816000
13.99999991	50.31281000
14.03999991	57.50298000
14.07999991	64.68703000
14.11999991	71.87719000
14.15999991	79.06125000
14.19999991	84.45692000
14.23999991	93.44157000
14.27999991	100.62560000
14.31999991	109.61030000
14.35999991	109.61030000
14.39999991	118.59490000
14.43999991	131.17470000
14.47999991	136.56420000
14.51999991	134.76970000
14.55999991	134.76970000
14.59999991	136.56420000
14.63999991	134.76970000
14.67999991	129.38020000
14.71999991	120.39550000
14.75999991	113.20540000
14.79999991	102.42620000
14.83999991	88.04590000
14.87999991	77.26676000
14.91999991	64.68703000
14.95999991	48.51222000
14.99999991	35.93859000
15.03999991	23.35887000
15.07999991	10.77914000
15.11999991	0.00000000
15.15999991	-10.77914000
15.19999991	-23.35887000
15.23999991	-34.13800000
15.27999991	-37.73308000
15.31999991	-48.51222000
15.35999991	-53.90789000
15.39999991	-59.29746000
15.43999991	-66.48762000
15.47999991	-71.87719000
15.51999991	-79.06125000
15.55999991	-86.25141000
15.59999991	-89.84650000
15.63999990	-98.83114000
15.67999990	-102.42620000
15.71999990	-109.61030000
15.75999990	-115.00600000
15.79999990	-120.39550000
15.83999990	-123.99060000
15.87999990	-125.78510000
15.91999990	-129.38020000
15.95999990	-127.57960000
15.99999990	-123.99060000
16.03999990	-120.39550000
16.07999990	-115.00600000
16.11999990	-107.81580000
16.15999990	-97.03055000
16.19999990	-86.25141000
16.23999990	-73.67168000
16.27999990	-61.09195000
16.31999990	-46.71774000
16.35999990	-34.13800000
16.39999990	-19.76379000
16.43999990	-7.18405700
16.47999990	5.38956800
16.51999990	17.96930000
16.55999990	28.74844000
16.59999990	39.52757000
16.63999990	48.51222000
16.67999990	57.50298000
16.71999990	64.68703000
16.75999990	70.07660000
16.79999990	77.26676000
16.83999990	84.45692000
16.87999990	91.64098000
16.91999990	98.83114000
16.95999990	106.01520000
16.99999990	113.20540000
17.03999990	120.39550000
17.07999990	125.78510000
17.11999990	131.17470000
17.15999990	134.76970000
17.19999990	136.56420000
17.23999990	136.56420000
17.27999989	134.76970000
17.31999989	129.38020000
17.35999989	123.99060000
17.39999989	115.00600000
17.43999989	104.22070000
17.47999989	93.44157000
17.51999989	80.86184000
17.55999989	66.48762000
17.59999989	52.10730000
17.63999989	39.52757000
17.67999989	26.95395000
17.71999989	12.57363000
17.75999989	0.00000000
17.79999989	-10.77914000
17.83999989	-21.55827000
17.87999989	-30.54292000
17.91999989	-37.73308000
17.95999989	-44.92325000
17.99999989	-53.90789000
18.03999989	-59.29746000
18.07999989	-64.68703000
18.11999989	-71.87719000
18.15999989	-77.26676000
18.19999989	-84.45692000
18.23999989	-89.84650000
18.27999989	-97.03055000
18.31999989	-102.42620000
18.35999989	-107.81580000
18.39999989	-113.20540000
18.43999989	-118.59490000
18.47999989	-122.19000000
18.51999989	-125.78510000
18.55999989	-127.57960000
18.59999989	-129.38020000
18.63999989	-125.78510000
18.67999989	-122.19000000
18.71999989	-115.00600000
18.75999989	-109.61030000
18.79999989	-100.62560000
18.83999989	-88.04590000
18.87999989	-77.26676000
18.91999989	-64.68703000
18.95999988	-50.31281000
18.99999988	-35.93859000
19.03999988	-23.35887000
19.07999988	-8.98464900
19.11999988	3.58897700
19.15999988	14.37422000
19.19999988	26.95395000
19.23999988	32.34352000
19.27999988	43.12265000
19.31999988	55.70238000
19.35999988	64.68703000
19.39999988	68.28211000
19.43999988	75.47227000
19.47999988	80.86184000
19.51999988	89.84650000
19.55999988	97.03055000
19.59999988	104.22070000
19.63999988	111.41090000
19.67999988	118.59490000
19.71999988	125.78510000
19.75999988	129.38020000
19.79999988	134.76970000
19.83999988	134.76970000
19.87999988	136.56420000
19.91999988	134.76970000
19.95999988	131.17470000
19.99999988	123.99060000
20.03999988	115.00600000
20.07999988	106.01520000
20.11999988	93.44157000
20.15999988	82.65633000
20.19999988	71.87719000
20.23999988	64.68703000
20.27999988	59.29746000
20.31999988	52.10730000
20.35999988	35.93859000
20.39999988	17.96930000
20.43999988	-1.79448800
20.47999988	-25.15336000
20.51999988	-44.92325000
20.55999988	-64.68703000
20.59999987	-79.06125000
20.63999987	-86.25141000
20.67999987	-82.65633000
20.71999987	-77.26676000
20.75999987	-73.67168000
20.79999987	-73.67168000
20.83999987	-73.67168000
20.87999987	-75.47227000
20.91999987	-80.86184000
20.95999987	-89.84650000
20.99999987	-98.83114000
21.03999987	-104.22070000
21.07999987	-107.81580000
21.11999987	-111.41090000
21.15999987	-116.80040000
21.19999987	-122.19000000
21.23999987	-122.19000000
21.27999987	-120.39550000
21.31999987	-118.59490000
21.35999987	-113.20540000
21.39999987	-107.81580000
21.43999987	-100.62560000
21.47999987	-93.44157000
21.51999987	-84.45692000
21.55999987	-75.47227000
21.59999987	-66.48762000
21.63999987	-53.90789000
21.67999987	-39.52757000
21.71999987	-23.35887000
21.75999987	-5.38956800
21.79999987	10.77914000
21.83999987	26.95395000
21.87999987	41.32816000
21.91999987	52.10730000
21.95999987	59.29746000
21.99999987	64.68703000
22.03999987	71.87719000
22.07999987	73.67168000
22.11999987	80.86184000
22.15999987	86.25141000
22.19999987	95.23605000
22.23999986	106.01520000
22.27999986	115.00600000
22.31999986	122.19000000
22.35999986	127.57960000
22.39999986	129.38020000
22.43999986	129.38020000
22.47999986	131.17470000
22.51999986	131.17470000
22.55999986	127.57960000
22.59999986	125.78510000
22.63999986	120.39550000
22.67999986	113.20540000
22.71999986	107.81580000
22.75999986	98.83114000
22.79999986	86.25141000
22.83999986	75.47227000
22.87999986	61.09195000
22.91999986	48.51222000
22.95999986	35.93859000
22.99999986	21.55827000
23.03999986	8.98464900
23.07999986	-1.79448800
23.11999986	-12.57363000
23.15999986	-23.35887000
23.19999986	-32.34352000
23.23999986	-41.32816000
23.27999986	-50.31281000
23.31999986	-55.70238000
23.35999986	-62.89254000
23.39999986	-68.28211000
23.43999986	-73.67168000
23.47999986	-80.86184000
23.51999986	-88.04590000
23.55999986	-95.23605000
23.59999986	-102.42620000
23.63999986	-109.61030000
23.67999986	-115.00600000
23.71999986	-118.59490000
23.75999986	-122.19000000
23.79999986	-123.99060000
23.83999986	-123.99060000
23.87999985	-123.99060000
23.91999985	-122.19000000
23.95999985	-120.39550000
23.99999985	-116.80040000
24.03999985	-111.41090000
24.07999985	-102.42620000
24.11999985	-93.44157000
24.15999985	-80.86184000
24.19999985	-73.67168000
24.23999985	-61.09195000
24.27999985	-39.52757000
24.31999985	-23.35887000
24.35999985	-16.16870000
24.39999985	-5.38956800
24.43999985	5.38956800
24.47999985	21.55827000
24.51999985	28.74844000
24.55999985	39.52757000
24.59999985	48.51222000
24.63999985	57.50298000
24.67999985	64.68703000
24.71999985	71.87719000
24.75999985	79.06125000
24.79999985	86.25141000
24.83999985	93.44157000
24.87999985	100.62560000
24.91999985	111.41090000
24.95999985	116.80040000
24.99999985	122.19000000
25.03999985	129.38020000
25.07999985	134.76970000
25.11999985	136.56420000
25.15999985	136.56420000
25.19999985	136.56420000
25.23999985	132.97520000
25.27999985	127.57960000
25.31999985	120.39550000
25.35999985	111.41090000
25.39999985	100.62560000
25.43999985	88.04590000
25.47999985	75.47227000
25.51999984	62.89254000
25.55999984	48.51222000
25.59999984	34.13800000
25.63999984	19.76379000
25.67999984	7.18405700
25.71999984	-1.79448800
25.75999984	-12.57363000
25.79999984	-21.55827000
25.83999984	-30.54292000
25.87999984	-37.73308000
25.91999984	-44.92325000
25.95999984	-52.10730000
25.99999984	-59.29746000
26.03999984	-64.68703000
26.07999984	-71.87719000
26.11999984	-79.06125000
26.15999984	-84.45692000
26.19999984	-89.84650000
26.23999984	-97.03055000
26.27999984	-104.22070000
26.31999984	-109.61030000
26.35999984	-115.00600000
26.39999984	-120.39550000
26.43999984	-123.99060000
26.47999984	-127.57960000
26.51999984	-129.38020000
26.55999984	-127.57960000
26.59999984	-125.78510000
26.63999984	-120.39550000
26.67999984	-115.00600000
26.71999984	-106.01520000
26.75999984	-97.03055000
26.79999984	-84.45692000
26.83999984	-71.87719000
26.87999984	-59.29746000
26.91999984	-44.92325000
26.95999984	-32.34352000
26.99999984	-17.96930000
27.03999984	-5.38956800
27.07999984	7.18405700
27.11999984	17.96930000
27.15999983	28.74844000
27.19999983	37.73308000
27.23999983	48.51222000
27.27999983	55.70238000
27.31999983	62.89254000
27.35999983	70.07660000
27.39999983	77.26676000
27.43999983	82.65633000
27.47999983	91.64098000
27.51999983	98.83114000
27.55999983	106.01520000
27.59999983	113.20540000
27.63999983	120.39550000
27.67999983	127.57960000
27.71999983	131.17470000
27.75999983	136.56420000
27.79999983	138.36480000
27.83999983	138.36480000
27.87999983	136.56420000
27.91999983	131.17470000
27.95999983	123.99060000
27.99999983	115.00600000
28.03999983	106.01520000
28.07999983	93.44157000
28.11999983	79.06125000
28.15999983	64.68703000
28.19999983	52.10730000
28.23999983	37.73308000
28.27999983	25.15336000
28.31999983	12.57363000
28.35999983	0.00000000
28.39999983	-10.77914000
28.43999983	-21.55827000
28.47999983	-30.54292000
28.51999983	-37.73308000
28.55999983	-44.92325000
28.59999983	-52.10730000
28.63999983	-57.50298000
28.67999983	-64.68703000
28.71999983	-70.07660000
28.75999983	-77.26676000
28.79999982	-82.65633000
28.83999982	-88.04590000
28.87999982	-95.23605000
28.91999982	-100.62560000
28.95999982	-107.81580000
28.99999982	-113.20540000
29.03999982	-118.59490000
29.07999982	-123.99060000
29.11999982	-131.17470000
29.15999982	-129.38020000
29.19999982	-125.78510000
29.23999982	-125.78510000
29.27999982	-123.99060000
29.31999982	-116.80040000
29.35999982	-111.41090000
29.39999982	-100.62560000
29.43999982	-89.84650000
29.47999982	-79.06125000
29.51999982	-64.68703000
29.55999982	-50.31281000
29.59999982	-35.93859000
29.63999982	-23.35887000
29.67999982	-8.98464900
29.71999982	1.79448800
29.75999982	14.37422000
29.79999982	26.95395000
29.83999982	35.93859000
29.87999982	46.71774000
29.91999982	55.70238000
29.95999982	62.89254000
29.99999982	70.07660000
30.03999982	77.26676000
30.07999982	82.65633000
30.11999982	89.84650000
30.15999982	97.03055000
30.19999982	104.22070000
30.23999982	113.20540000
30.27999982	120.39550000
30.31999982	125.78510000
30.35999982	131.17470000
30.39999982	134.76970000
30.43999982	138.36480000
30.47999981	140.15930000
30.51999981	136.56420000
30.55999981	131.17470000
30.59999981	125.78510000
30.63999981	118.59490000
30.67999981	107.81580000
30.71999981	95.23605000
30.75999981	82.65633000
30.79999981	70.07660000
30.83999981	57.50298000
30.87999981	43.12265000
30.91999981	28.74844000
30.95999981	16.16870000
30.99999981	3.58897700
31.03999981	-7.18405700
31.07999981	-19.76379000
31.11999981	-28.74844000
31.15999981	-37.73308000
31.19999981	-44.92325000
31.23999981	-52.10730000
31.27999981	-59.29746000
31.31999981	-64.68703000
31.35999981	-71.87719000
31.39999981	-77.26676000
31.43999981	-82.65633000
31.47999981	-89.84650000
31.51999981	-95.23605000
31.55999981	-100.62560000
31.59999981	-106.01520000
31.63999981	-113.20540000
31.67999981	-116.80040000
31.71999981	-122.19000000
31.75999981	-125.78510000
31.79999981	-127.57960000
31.83999981	-127.57960000
31.87999981	-125.78510000
31.91999981	-122.19000000
31.95999981	-116.80040000
31.99999981	-111.41090000
32.03999981	-102.42620000
32.07999981	-91.64098000
32.11999980	-79.06125000
32.15999980	-66.48762000
32.19999980	-53.90789000
32.23999980	-39.52757000
32.27999980	-25.15336000
32.31999980	-10.77914000
32.35999980	0.00000000
32.39999980	14.37422000
32.43999980	25.15336000
32.47999980	35.93859000
32.51999980	44.92325000
32.55999980	53.90789000
32.59999980	61.09195000
32.63999980	68.28211000
32.67999980	73.67168000
32.71999980	80.86184000
32.75999980	88.04590000
32.79999980	95.23605000
32.83999980	102.42620000
32.87999980	111.41090000
32.91999980	116.80040000
32.95999980	123.99060000
32.99999980	129.38020000
33.03999980	132.97520000
33.07999980	136.56420000
33.11999980	136.56420000
33.15999980	136.56420000
33.19999980	132.97520000
33.23999980	127.57960000
33.27999980	118.59490000
33.31999980	109.61030000
33.35999980	98.83114000
33.39999980	86.25141000
33.43999980	73.67168000
33.47999980	59.29746000
33.51999980	46.71774000
33.55999980	32.34352000
33.59999980	19.76379000
33.63999980	7.18405700
33.67999980	-5.38956800
33.71999980	-16.16870000
33.75999979	-25.15336000
33.79999979	-34.13800000
33.83999979	-43.12265000
33.87999979	-50.31281000
33.91999979	-57.50298000
33.95999979	-62.89254000
33.99999979	-68.28211000
34.03999979	-73.67168000
34.07999979	-82.65633000
34.11999979	-86.25141000
34.15999979	-93.44157000
34.19999979	-100.62560000
34.23999979	-104.22070000
34.27999979	-111.41090000
34.31999979	-116.80040000
34.35999979	-120.39550000
34.39999979	-123.99060000
34.43999979	-127.57960000
34.47999979	-127.57960000
34.51999979	-125.78510000
34.55999979	-123.99060000
34.59999979	-120.39550000
34.63999979	-111.41090000
34.67999979	-104.22070000
34.71999979	-93.44157000
34.75999979	-82.65633000
34.79999979	-70.07660000
34.83999979	-57.50298000
34.87999979	-43.12265000
34.91999979	-30.54292000
34.95999979	-16.16870000
34.99999979	-3.58897700
35.03999979	10.77914000
35.07999979	21.55827000
35.11999979	32.34352000
35.15999979	43.12265000
35.19999979	50.31281000
35.23999979	59.29746000
35.27999979	66.48762000
35.31999979	71.87719000
35.35999979	79.06125000
35.39999978	86.25141000
35.43999978	93.44157000
35.47999978	100.62560000
35.51999978	109.61030000
35.55999978	116.80040000
35.59999978	122.19000000
35.63999978	129.38020000
35.67999978	132.97520000
35.71999978	134.76970000
35.75999978	136.56420000
35.79999978	134.76970000
35.83999978	132.97520000
35.87999978	127.57960000
35.91999978	120.39550000
35.95999978	111.41090000
35.99999978	100.62560000
36.03999978	89.84650000
36.07999978	77.26676000
36.11999978	62.89254000
36.15999978	50.31281000
36.19999978	35.93859000
36.23999978	23.35887000
36.27999978	8.98464900
36.31999978	-1.79448800
36.35999978	-12.57363000
36.39999978	-23.35887000
36.43999978	-30.54292000
36.47999978	-39.52757000
36.51999978	-48.51222000
36.55999978	-53.90789000
36.59999978	-61.09195000
36.63999978	-66.48762000
36.67999978	-73.67168000
36.71999978	-80.86184000
36.75999978	-86.25141000
36.79999978	-93.44157000
36.83999978	-100.62560000
36.87999978	-104.22070000
36.91999978	-111.41090000
36.95999978	-116.80040000
36.99999978	-120.39550000
37.03999977	-123.99060000
37.07999977	-125.78510000
37.11999977	-127.57960000
37.15999977	-127.57960000
37.19999977	-123.99060000
37.23999977	-120.39550000
37.27999977	-115.00600000
37.31999977	-106.01520000
37.35999977	-97.03055000
37.39999977	-84.45692000
37.43999977	-71.87719000
37.47999977	-59.29746000
37.51999977	-44.92325000
37.55999977	-32.34352000
37.59999977	-17.96930000
37.63999977	-7.18405700
37.67999977	7.18405700
37.71999977	17.96930000
37.75999977	28.74844000
37.79999977	39.52757000
37.83999977	48.51222000
37.87999977	57.50298000
37.91999977	64.68703000
37.95999977	71.87719000
37.99999977	77.26676000
38.03999977	84.45692000
38.07999977	93.44157000
38.11999977	100.62560000
38.15999977	107.81580000
38.19999977	115.00600000
38.23999977	122.19000000
38.27999977	127.57960000
38.31999977	131.17470000
38.35999977	136.56420000
38.39999977	136.56420000
38.43999977	136.56420000
38.47999977	134.76970000
38.51999977	129.38020000
38.55999977	122.19000000
38.59999977	113.20540000
38.63999977	104.22070000
38.67999976	93.44157000
38.71999976	79.06125000
38.75999976	64.68703000
38.79999976	53.90789000
38.83999976	37.73308000
38.87999976	26.95395000
38.91999976	14.37422000
38.95999976	-1.79448800
38.99999976	-14.37422000
39.03999976	-17.96930000
39.07999976	-23.35887000
39.11999976	-37.73308000
39.15999976	-44.92325000
39.19999976	-55.70238000
39.23999976	-57.50298000
39.27999976	-64.68703000
39.31999976	-71.87719000
39.35999976	-77.26676000
39.39999976	-84.45692000
39.43999976	-89.84650000
39.47999976	-97.03055000
39.51999976	-102.42620000
39.55999976	-109.61030000
39.59999976	-115.00600000
39.63999976	-120.39550000
39.67999976	-122.19000000
39.71999976	-125.78510000
39.75999976	-129.38020000
39.79999976	-129.38020000
39.83999976	-125.78510000
39.87999976	-122.19000000
39.91999976	-115.00600000
39.95999976	-107.81580000
39.99999976	-98.83114000
40.03999976	-88.04590000
40.07999976	-75.47227000
40.11999976	-62.89254000
40.15999976	-50.31281000
40.19999976	-35.93859000
40.23999976	-21.55827000
40.27999976	-8.98464900
40.31999975	3.58897700
40.35999975	16.16870000
40.39999975	26.95395000
40.43999975	35.93859000
40.47999975	46.71774000
40.51999975	55.70238000
40.55999975	62.89254000
40.59999975	70.07660000
40.63999975	75.47227000
40.67999975	82.65633000
40.71999975	89.84650000
40.75999975	97.03055000
40.79999975	106.01520000
40.83999975	113.20540000
40.87999975	120.39550000
40.91999975	127.57960000
40.95999975	131.17470000
40.99999975	136.56420000
41.03999975	138.36480000
41.07999975	136.56420000
41.11999975	136.56420000
41.15999975	131.17470000
41.19999975	125.78510000
41.23999975	116.80040000
41.27999975	107.81580000
41.31999975	93.44157000
41.35999975	82.65633000
41.39999975	70.07660000
41.43999975	55.70238000
41.47999975	41.32816000
41.51999975	28.74844000
41.55999975	14.37422000
41.59999975	3.58897700
41.63999975	-8.98464900
41.67999975	-17.96930000
41.71999975	-28.74844000
41.75999975	-35.93859000
41.79999975	-43.12265000
41.83999975	-50.31281000
41.87999975	-57.50298000
41.91999975	-62.89254000
41.95999974	-70.07660000
41.99999974	-75.47227000
42.03999974	-82.65633000
42.07999974	-88.04590000
42.11999974	-93.44157000
42.15999974	-100.62560000
42.19999974	-107.81580000
42.23999974	-113.20540000
42.27999974	-116.80040000
42.31999974	-122.19000000
42.35999974	-125.78510000
42.39999974	-127.57960000
42.43999974	-127.57960000
42.47999974	-127.57960000
42.51999974	-122.19000000
42.55999974	-116.80040000
42.59999974	-113.20540000
42.63999974	-109.61030000
42.67999974	-115.00600000
42.71999974	-115.00600000
42.75999974	-88.04590000
42.79999974	-52.10730000
42.83999974	-37.73308000
42.87999974	-21.55827000
42.91999974	12.57363000
42.95999974	46.71774000
42.99999974	61.09195000
43.03999974	55.70238000
43.07999974	48.51222000
43.11999974	48.51222000
43.15999974	57.50298000
43.19999974	61.09195000
43.23999974	53.90789000
43.27999974	52.10730000
43.31999974	64.68703000
43.35999974	86.25141000
43.39999974	91.64098000
43.43999974	91.64098000
43.47999974	97.03055000
43.51999974	107.81580000
43.55999974	120.39550000
43.59999974	125.78510000
43.63999973	127.57960000
43.67999973	129.38020000
43.71999973	131.17470000
43.75999973	134.76970000
43.79999973	132.97520000
43.83999973	123.99060000
43.87999973	115.00600000
43.91999973	116.80040000
43.95999973	113.20540000
43.99999973	102.42620000
44.03999973	88.04590000
44.07999973	70.07660000
44.11999973	52.10730000
44.15999973	34.13800000
44.19999973	17.96930000
44.23999973	-1.79448800
44.27999973	-17.96930000
44.31999973	-28.74844000
44.35999973	-32.34352000
44.39999973	-37.73308000
44.43999973	-44.92325000
44.47999973	-50.31281000
44.51999973	-53.90789000
44.55999973	-59.29746000
44.59999973	-68.28211000
44.63999973	-79.06125000
44.67999973	-86.25141000
44.71999973	-91.64098000
44.75999973	-95.23605000
44.79999973	-98.83114000
44.83999973	-102.42620000
44.87999973	-106.01520000
44.91999973	-107.81580000
44.95999973	-113.20540000
44.99999973	-116.80040000
45.03999973	-122.19000000
45.07999973	-123.99060000
45.11999973	-125.78510000
45.15999973	-123.99060000
45.19999973	-120.39550000
45.23999973	-115.00600000
45.27999972	-107.81580000
45.31999972	-97.03055000
45.35999972	-86.25141000
45.39999972	-73.67168000
45.43999972	-59.29746000
45.47999972	-46.71774000
45.51999972	-32.34352000
45.55999972	-16.16870000
45.59999972	-1.79448800
45.63999972	10.77914000
45.67999972	23.35887000
45.71999972	34.13800000
45.75999972	43.12265000
45.79999972	50.31281000
45.83999972	59.29746000
45.87999972	68.28211000
45.91999972	75.47227000
45.95999972	84.45692000
45.99999972	91.64098000
46.03999972	98.83114000
46.07999972	104.22070000
46.11999972	111.41090000
46.15999972	115.00600000
46.19999972	122.19000000
46.23999972	125.78510000
46.27999972	129.38020000
46.31999972	132.97520000
46.35999972	136.56420000
46.39999972	132.97520000
46.43999972	131.17470000
46.47999972	127.57960000
46.51999972	120.39550000
46.55999972	111.41090000
46.59999972	98.83114000
46.63999972	86.25141000
46.67999972	75.47227000
46.71999972	61.09195000
46.75999972	48.51222000
46.79999972	35.93859000
46.83999972	23.35887000
46.87999972	10.77914000
46.91999971	0.00000000
46.95999971	-10.77914000
46.99999971	-21.55827000
47.03999971	-32.34352000
47.07999971	-41.32816000
47.11999971	-48.51222000
47.15999971	-55.70238000
47.19999971	-62.89254000
47.23999971	-70.07660000
47.27999971	-75.47227000
47.31999971	-82.65633000
47.35999971	-88.04590000
47.39999971	-93.44157000
47.43999971	-100.62560000
47.47999971	-106.01520000
47.51999971	-111.41090000
47.55999971	-116.80040000
47.59999971	-120.39550000
47.63999971	-123.99060000
47.67999971	-125.78510000
47.71999971	-127.57960000
47.75999971	-125.78510000
47.79999971	-123.99060000
47.83999971	-118.59490000
47.87999971	-113.20540000
47.91999971	-104.22070000
47.95999971	-93.44157000
47.99999971	-82.65633000
48.03999971	-71.87719000
48.07999971	-57.50298000
48.11999971	-44.92325000
48.15999971	-32.34352000
48.19999971	-19.76379000
48.23999971	-7.18405700
48.27999971	5.38956800
48.31999971	17.96930000
48.35999971	28.74844000
48.39999971	37.73308000
48.43999971	48.51222000
48.47999971	55.70238000
48.51999971	64.68703000
48.55999970	71.87719000
48.59999970	79.06125000
48.63999970	84.45692000
48.67999970	93.44157000
48.71999970	100.62560000
48.75999970	111.41090000
48.79999970	113.20540000
48.83999970	116.80040000
48.87999970	129.38020000
48.91999970	140.15930000
48.95999970	136.56420000
48.99999970	136.56420000
49.03999970	134.76970000
49.07999970	136.56420000
49.11999970	129.38020000
49.15999970	120.39550000
49.19999970	111.41090000
49.23999970	102.42620000
49.27999970	89.84650000
49.31999970	77.26676000
49.35999970	62.89254000
49.39999970	50.31281000
49.43999970	34.13800000
49.47999970	23.35887000
49.51999970	10.77914000
49.55999970	0.00000000
49.59999970	-10.77914000
49.63999970	-21.55827000
49.67999970	-28.74844000
49.71999970	-37.73308000
49.75999970	-44.92325000
49.79999970	-52.10730000
49.83999970	-59.29746000
49.87999970	-64.68703000
49.91999970	-71.87719000
49.95999970	-79.06125000
49.99999970	-84.45692000
50.03999970	-89.84650000
50.07999970	-97.03055000
50.11999970	-104.22070000
50.15999970	-111.41090000
50.19999969	-116.80040000
50.23999969	-120.39550000
50.27999969	-123.99060000
50.31999969	-129.38020000
50.35999969	-129.38020000
50.39999969	-127.57960000
50.43999969	-125.78510000
50.47999969	-122.19000000
50.51999969	-115.00600000
50.55999969	-107.81580000
50.59999969	-97.03055000
50.63999969	-86.25141000
50.67999969	-73.67168000
50.71999969	-61.09195000
50.75999969	-48.51222000
50.79999969	-34.13800000
50.83999969	-21.55827000
50.87999969	-7.18405700
50.91999969	5.38956800
50.95999969	16.16870000
50.99999969	28.74844000
51.03999969	37.73308000
51.07999969	48.51222000
51.11999969	55.70238000
51.15999969	62.89254000
51.19999969	70.07660000
51.23999969	75.47227000
51.27999969	82.65633000
51.31999969	89.84650000
51.35999969	97.03055000
51.39999969	106.01520000
51.43999969	113.20540000
51.47999969	120.39550000
51.51999969	127.57960000
51.55999969	131.17470000
51.59999969	134.76970000
51.63999969	138.36480000
51.67999969	136.56420000
51.71999969	134.76970000
51.75999969	129.38020000
51.79999969	123.99060000
51.83999968	115.00600000
51.87999968	106.01520000
51.91999968	93.44157000
51.95999968	80.86184000
51.99999968	66.48762000
52.03999968	53.90789000
52.07999968	39.52757000
52.11999968	25.15336000
52.15999968	12.57363000
52.19999968	1.79448800
52.23999968	-8.98464900
52.27999968	-21.55827000
52.31999968	-28.74844000
52.35999968	-37.73308000
52.39999968	-44.92325000
52.43999968	-52.10730000
52.47999968	-57.50298000
52.51999968	-62.89254000
52.55999968	-70.07660000
52.59999968	-75.47227000
52.63999968	-82.65633000
52.67999968	-88.04590000
52.71999968	-93.44157000
52.75999968	-100.62560000
52.79999968	-107.81580000
52.83999968	-111.41090000
52.87999968	-116.80040000
52.91999968	-122.19000000
52.95999968	-125.78510000
52.99999968	-127.57960000
53.03999968	-127.57960000
53.07999968	-125.78510000
53.11999968	-122.19000000
53.15999968	-116.80040000
53.19999968	-109.61030000
53.23999968	-100.62560000
53.27999968	-89.84650000
53.31999968	-79.06125000
53.35999968	-64.68703000
53.39999968	-52.10730000
53.43999968	-37.73308000
53.47999967	-23.35887000
53.51999967	-10.77914000
53.55999967	3.58897700
53.59999967	16.16870000
53.63999967	25.15336000
53.67999967	34.13800000
53.71999967	39.52757000
53.75999967	50.31281000
53.79999967	62.89254000
53.83999967	68.28211000
53.87999967	71.87719000
53.91999967	79.06125000
53.95999967	86.25141000
53.99999967	93.44157000
54.03999967	100.62560000
54.07999967	107.81580000
54.11999967	116.80040000
54.15999967	122.19000000
54.19999967	129.38020000
54.23999967	132.97520000
54.27999967	136.56420000
54.31999967	136.56420000
54.35999967	134.76970000
54.39999967	132.97520000
54.43999967	127.57960000
54.47999967	118.59490000
54.51999967	107.81580000
54.55999967	97.03055000
54.59999967	84.45692000
54.63999967	71.87719000
54.67999967	59.29746000
54.71999967	44.92325000
54.75999967	30.54292000
54.79999967	17.96930000
54.83999967	5.38956800
54.87999967	-7.18405700
54.91999967	-16.16870000
54.95999967	-26.95395000
54.99999967	-35.93859000
55.03999967	-43.12265000
55.07999967	-50.31281000
55.11999967	-57.50298000
55.15999966	-62.89254000
55.19999966	-70.07660000
55.23999966	-75.47227000
55.27999966	-80.86184000
55.31999966	-86.25141000
55.35999966	-93.44157000
55.39999966	-100.62560000
55.43999966	-107.81580000
55.47999966	-113.20540000
55.51999966	-116.80040000
55.55999966	-122.19000000
55.59999966	-125.78510000
55.63999966	-127.57960000
55.67999966	-129.38020000
55.71999966	-127.57960000
55.75999966	-123.99060000
55.79999966	-118.59490000
55.83999966	-113.20540000
55.87999966	-102.42620000
55.91999966	-93.44157000
55.95999966	-80.86184000
55.99999966	-68.28211000
56.03999966	-55.70238000
56.07999966	-41.32816000
56.11999966	-28.74844000
56.15999966	-14.37422000
56.19999966	-1.79448800
56.23999966	10.77914000
56.27999966	21.55827000
56.31999966	34.13800000
56.35999966	43.12265000
56.39999966	50.31281000
56.43999966	59.29746000
56.47999966	66.48762000
56.51999966	71.87719000
56.55999966	79.06125000
56.59999966	86.25141000
56.63999966	93.44157000
56.67999966	100.62560000
56.71999966	109.61030000
56.75999966	115.00600000
56.79999965	122.19000000
56.83999965	129.38020000
56.87999965	132.97520000
56.91999965	134.76970000
56.95999965	136.56420000
56.99999965	134.76970000
57.03999965	132.97520000
57.07999965	127.57960000
57.11999965	120.39550000
57.15999965	111.41090000
57.19999965	100.62560000
57.23999965	86.25141000
57.27999965	73.67168000
57.31999965	61.09195000
57.35999965	46.71774000
57.39999965	34.13800000
57.43999965	19.76379000
57.47999965	7.18405700
57.51999965	-3.58897700
57.55999965	-14.37422000
57.59999965	-25.15336000
57.63999965	-34.13800000
57.67999965	-41.32816000
57.71999965	-48.51222000
57.75999965	-55.70238000
57.79999965	-61.09195000
57.83999965	-68.28211000
57.87999965	-73.67168000
57.91999965	-80.86184000
57.95999965	-86.25141000
57.99999965	-91.64098000
58.03999965	-98.83114000
58.07999965	-104.22070000
58.11999965	-111.41090000
58.15999965	-116.80040000
58.19999965	-120.39550000
58.23999965	-123.99060000
58.27999965	-127.57960000
58.31999965	-129.38020000
58.35999965	-127.57960000
58.39999965	-123.99060000
58.43999964	-120.39550000
58.47999964	-113.20540000
58.51999964	-106.01520000
58.55999964	-95.23605000
58.59999964	-84.45692000
58.63999964	-70.07660000
58.67999964	-66.48762000
58.71999964	-44.92325000
58.75999964	-25.15336000
58.79999964	-14.37422000
58.83999964	-5.38956800
58.87999964	5.38956800
58.91999964	21.55827000
58.95999964	32.34352000
58.99999964	41.32816000
59.03999964	48.51222000
59.07999964	57.50298000
59.11999964	64.68703000
59.15999964	71.87719000
59.19999964	79.06125000
59.23999964	84.45692000
59.27999964	91.64098000
59.31999964	98.83114000
59.35999964	107.81580000
59.39999964	115.00600000
59.43999964	122.19000000
59.47999964	127.57960000
59.51999964	131.17470000
59.55999964	134.76970000
59.59999964	136.56420000
59.63999964	136.56420000
59.67999964	134.76970000
59.71999964	129.38020000
59.75999964	122.19000000
59.79999964	113.20540000
59.83999964	102.42620000
59.87999964	89.84650000
59.91999964	77.26676000
59.95999964	64.68703000
59.99999964	50.31281000
60.03999964	35.93859000
60.07999963	23.35887000
60.11999963	10.77914000
60.15999963	-1.79448800
60.19999963	-12.57363000
60.23999963	-23.35887000
60.27999963	-32.34352000
60.31999963	-39.52757000
60.35999963	-48.51222000
60.39999963	-55.70238000
60.43999963	-61.09195000
60.47999963	-66.48762000
60.51999963	-71.87719000
60.55999963	-79.06125000
60.59999963	-84.45692000
60.63999963	-89.84650000
60.67999963	-97.03055000
60.71999963	-102.42620000
60.75999963	-109.61030000
60.79999963	-115.00600000
60.83999963	-118.59490000
60.87999963	-122.19000000
60.91999963	-125.78510000
60.95999963	-127.57960000
60.99999963	-127.57960000
61.03999963	-125.78510000
61.07999963	-122.19000000
61.11999963	-115.00600000
61.15999963	-107.81580000
61.19999963	-100.62560000
61.23999963	-86.25141000
61.27999963	-75.47227000
61.31999963	-61.09195000
61.35999963	-48.51222000
61.39999963	-34.13800000
61.43999963	-21.55827000
61.47999963	-7.18405700
61.51999963	5.38956800
61.55999963	17.96930000
61.59999963	28.74844000
61.63999963	39.52757000
61.67999963	48.51222000
61.71999962	57.50298000
61.75999962	64.68703000
61.79999962	71.87719000
61.83999962	75.47227000
61.87999962	84.45692000
61.91999962	91.64098000
61.95999962	98.83114000
61.99999962	106.01520000
62.03999962	113.20540000
62.07999962	120.39550000
62.11999962	125.78510000
62.15999962	131.17470000
62.19999962	134.76970000
62.23999962	136.56420000
62.27999962	136.56420000
62.31999962	134.76970000
62.35999962	129.38020000
62.39999962	122.19000000
62.43999962	115.00600000
62.47999962	104.22070000
62.51999962	93.44157000
62.55999962	80.86184000
62.59999962	66.48762000
62.63999962	53.90789000
62.67999962	41.32816000
62.71999962	26.95395000
62.75999962	14.37422000
62.79999962	1.79448800
62.83999962	-8.98464900
62.87999962	-19.76379000
62.91999962	-28.74844000
62.95999962	-37.73308000
62.99999962	-44.92325000
63.03999962	-53.90789000
63.07999962	-59.29746000
63.11999962	-64.68703000
63.15999962	-71.87719000
63.19999962	-77.26676000
63.23999962	-82.65633000
63.27999962	-89.84650000
63.31999962	-95.23605000
63.35999961	-102.42620000
63.39999961	-107.81580000
63.43999961	-115.00600000
63.47999961	-118.59490000
63.51999961	-122.19000000
63.55999961	-131.17470000
63.59999961	-129.38020000
63.63999961	-125.78510000
63.67999961	-122.19000000
63.71999961	-122.19000000
63.75999961	-116.80040000
63.79999961	-109.61030000
63.83999961	-100.62560000
63.87999961	-89.84650000
63.91999961	-79.06125000
63.95999961	-64.68703000
63.99999961	-52.10730000
64.03999961	-37.73308000
64.07999961	-23.35887000
64.11999961	-8.98464900
64.15999961	1.79448800
64.19999961	14.37422000
64.23999961	25.15336000
64.27999961	35.93859000
64.31999961	44.92325000
64.35999961	53.90789000
64.39999961	61.09195000
64.43999961	70.07660000
64.47999961	75.47227000
64.51999961	82.65633000
64.55999961	89.84650000
64.59999961	95.23605000
64.63999961	104.22070000
64.67999961	111.41090000
64.71999961	118.59490000
64.75999961	125.78510000
64.79999961	131.17470000
64.83999961	134.76970000
64.87999961	136.56420000
64.91999961	136.56420000
64.95999961	134.76970000
64.99999960	131.17470000
65.03999960	123.99060000
65.07999960	116.80040000
65.11999960	106.01520000
65.15999960	93.44157000
65.19999960	82.65633000
65.23999960	70.07660000
65.27999960	55.70238000
65.31999960	43.12265000
65.35999960	28.74844000
65.39999960	16.16870000
65.43999960	5.38956800
65.47999960	-7.18405700
65.51999960	-16.16870000
65.55999960	-26.95395000
65.59999960	-35.93859000
65.63999960	-43.12265000
65.67999960	-50.31281000
65.71999960	-57.50298000
65.75999960	-62.89254000
65.79999960	-68.28211000
65.83999960	-75.47227000
65.87999960	-82.65633000
65.91999960	-88.04590000
65.95999960	-95.23605000
65.99999960	-100.62560000
66.03999960	-107.81580000
66.07999960	-113.20540000
66.11999960	-118.59490000
66.15999960	-122.19000000
66.19999960	-125.78510000
66.23999960	-127.57960000
66.27999960	-129.38020000
66.31999960	-125.78510000
66.35999960	-123.99060000
66.39999960	-118.59490000
66.43999960	-111.41090000
66.47999960	-102.42620000
66.51999960	-91.64098000
66.55999960	-79.06125000
66.59999960	-66.48762000
66.63999959	-53.90789000
66.67999959	-39.52757000
66.71999959	-26.95395000
66.75999959	-14.37422000
66.79999959	0.00000000
66.83999959	12.57363000
66.87999959	23.35887000
66.91999959	34.13800000
66.95999959	43.12265000
66.99999959	50.31281000
67.03999959	61.09195000
67.07999959	66.48762000
67.11999959	71.87719000
67.15999959	79.06125000
67.19999959	88.04590000
67.23999959	95.23605000
67.27999959	104.22070000
67.31999959	109.61030000
67.35999959	116.80040000
67.39999959	123.99060000
67.43999959	129.38020000
67.47999959	134.76970000
67.51999959	136.56420000
67.55999959	138.36480000
67.59999959	136.56420000
67.63999959	132.97520000
67.67999959	127.57960000
67.71999959	120.39550000
67.75999959	109.61030000
67.79999959	98.83114000
67.83999959	86.25141000
67.87999959	75.47227000
67.91999959	61.09195000
67.95999959	46.71774000
67.99999959	32.34352000
68.03999959	19.76379000
68.07999959	7.18405700
68.11999959	-3.58897700
68.15999959	-14.37422000
68.19999959	-25.15336000
68.23999959	-34.13800000
68.27999959	-43.12265000
68.31999958	-50.31281000
68.35999958	-55.70238000
68.39999958	-62.89254000
68.43999958	-68.28211000
68.47999958	-73.67168000
68.51999958	-80.86184000
68.55999958	-86.25141000
68.59999958	-91.64098000
68.63999958	-97.03055000
68.67999958	-106.01520000
68.71999958	-111.41090000
68.75999958	-116.80040000
68.79999958	-122.19000000
68.83999958	-125.78510000
68.87999958	-127.57960000
68.91999958	-129.38020000
68.95999958	-127.57960000
68.99999958	-125.78510000
69.03999958	-120.39550000
69.07999958	-115.00600000
69.11999958	-104.22070000
69.15999958	-95.23605000
69.19999958	-82.65633000
69.23999958	-70.07660000
69.27999958	-57.50298000
69.31999958	-43.12265000
69.35999958	-30.54292000
69.39999958	-16.16870000
69.43999958	-3.58897700
69.47999958	8.98464900
69.51999958	21.55827000
69.55999958	30.54292000
69.59999958	41.32816000
69.63999958	50.31281000
69.67999958	57.50298000
69.71999958	64.68703000
69.75999958	71.87719000
69.79999958	79.06125000
69.83999958	84.45692000
69.87999958	93.44157000
69.91999958	100.62560000
69.95999957	107.81580000
69.99999957	115.00600000
70.03999957	122.19000000
70.07999957	127.57960000
70.11999957	132.97520000
70.15999957	134.76970000
70.19999957	136.56420000
70.23999957	136.56420000
70.27999957	132.97520000
70.31999957	127.57960000
70.35999957	122.19000000
70.39999957	113.20540000
70.43999957	102.42620000
70.47999957	89.84650000
70.51999957	77.26676000
70.55999957	64.68703000
70.59999957	50.31281000
70.63999957	35.93859000
70.67999957	21.55827000
70.71999957	10.77914000
70.75999957	-1.79448800
70.79999957	-12.57363000
70.83999957	-21.55827000
70.87999957	-32.34352000
70.91999957	-39.52757000
70.95999957	-46.71774000
70.99999957	-55.70238000
71.03999957	-59.29746000
71.07999957	-66.48762000
71.11999957	-71.87719000
71.15999957	-79.06125000
71.19999957	-86.25141000
71.23999957	-91.64098000
71.27999957	-98.83114000
71.31999957	-104.22070000
71.35999957	-109.61030000
71.39999957	-115.00600000
71.43999957	-120.39550000
71.47999957	-123.99060000
71.51999957	-125.78510000
71.55999957	-127.57960000
71.59999956	-127.57960000
71.63999956	-125.78510000
71.67999956	-122.19000000
71.71999956	-115.00600000
71.75999956	-107.81580000
71.79999956	-97.03055000
71.83999956	-86.25141000
71.87999956	-73.67168000
71.91999956	-61.09195000
71.95999956	-46.71774000
71.99999956	-34.13800000
72.03999956	-21.55827000
72.07999956	-7.18405700
72.11999956	5.38956800
72.15999956	17.96930000
72.19999956	28.74844000
72.23999956	39.52757000
72.27999956	48.51222000
72.31999956	55.70238000
72.35999956	64.68703000
72.39999956	71.87719000
72.43999956	77.26676000
72.47999956	84.45692000
72.51999956	91.64098000
72.55999956	100.62560000
72.59999956	106.01520000
72.63999956	113.20540000
72.67999956	120.39550000
72.71999956	127.57960000
72.75999956	131.17470000
72.79999956	134.76970000
72.83999956	136.56420000
72.87999956	136.56420000
72.91999956	134.76970000
72.95999956	129.38020000
72.99999956	122.19000000
73.03999956	115.00600000
73.07999956	104.22070000
73.11999956	93.44157000
73.15999956	79.06125000
73.19999956	68.28211000
73.23999955	53.90789000
73.27999955	41.32816000
73.31999955	26.95395000
73.35999955	14.37422000
73.39999955	1.79448800
73.43999955	-14.37422000
73.47999955	-21.55827000
73.51999955	-25.15336000
73.55999955	-35.93859000
73.59999955	-46.71774000
73.63999955	-53.90789000
73.67999955	-59.29746000
73.71999955	-64.68703000
73.75999955	-71.87719000
73.79999955	-79.06125000
73.83999955	-82.65633000
73.87999955	-89.84650000
73.91999955	-97.03055000
73.95999955	-102.42620000
73.99999955	-107.81580000
74.03999955	-115.00600000
74.07999955	-118.59490000
74.11999955	-122.19000000
74.15999955	-125.78510000
74.19999955	-127.57960000
74.23999955	-127.57960000
74.27999955	-125.78510000
74.31999955	-122.19000000
74.35999955	-122.19000000
74.39999955	-120.39550000
74.43999955	-118.59490000
74.47999955	-113.20540000
74.51999955	-100.62560000
74.55999955	-80.86184000
74.59999955	-55.70238000
74.63999955	-28.74844000
74.67999955	-1.79448800
74.71999955	25.15336000
74.75999955	43.12265000
74.79999955	52.10730000
74.83999955	53.90789000
74.87999954	52.10730000
74.91999954	52.10730000
74.95999954	50.31281000
74.99999954	52.10730000
75.03999954	55.70238000
75.07999954	57.50298000
75.11999954	68.28211000
75.15999954	77.26676000
75.19999954	86.25141000
75.23999954	93.44157000
75.27999954	100.62560000
75.31999954	109.61030000
75.35999954	118.59490000
75.39999954	125.78510000
75.43999954	129.38020000
75.47999954	131.17470000
75.51999954	132.97520000
75.55999954	132.97520000
75.59999954	131.17470000
75.63999954	129.38020000
75.67999954	122.19000000
75.71999954	118.59490000
75.75999954	109.61030000
75.79999954	98.83114000
75.83999954	84.45692000
75.87999954	66.48762000
75.91999954	48.51222000
75.95999954	30.54292000
75.99999954	12.57363000
76.03999954	-3.58897700
76.07999954	-17.96930000
76.11999954	-26.95395000
76.15999954	-34.13800000
76.19999954	-39.52757000
76.23999954	-44.92325000
76.27999954	-50.31281000
76.31999954	-57.50298000
76.35999954	-64.68703000
76.39999954	-70.07660000
76.43999954	-79.06125000
76.47999954	-88.04590000
76.51999953	-89.84650000
76.55999953	-93.44157000
76.59999953	-98.83114000
76.63999953	-100.62560000
76.67999953	-106.01520000
76.71999953	-109.61030000
76.75999953	-113.20540000
76.79999953	-120.39550000
76.83999953	-122.19000000
76.87999953	-125.78510000
76.91999953	-127.57960000
76.95999953	-123.99060000
76.99999953	-120.39550000
77.03999953	-115.00600000
77.07999953	-107.81580000
77.11999953	-97.03055000
77.15999953	-82.65633000
77.19999953	-71.87719000
77.23999953	-57.50298000
77.27999953	-43.12265000
77.31999953	-28.74844000
77.35999953	-14.37422000
77.39999953	0.00000000
77.43999953	12.57363000
77.47999953	25.15336000
77.51999953	35.93859000
77.55999953	44.92325000
77.59999953	55.70238000
77.63999953	62.89254000
77.67999953	71.87719000
77.71999953	77.26676000
77.75999953	84.45692000
77.79999953	93.44157000
77.83999953	98.83114000
77.87999953	106.01520000
77.91999953	111.41090000
77.95999953	115.00600000
77.99999953	120.39550000
78.03999953	125.78510000
78.07999953	129.38020000
78.11999953	132.97520000
78.15999952	134.76970000
78.19999952	134.76970000
78.23999952	131.17470000
78.27999952	125.78510000
78.31999952	115.00600000
78.35999952	107.81580000
78.39999952	100.62560000
78.43999952	86.25141000
78.47999952	73.67168000
78.51999952	59.29746000
78.55999952	46.71774000
78.59999952	34.13800000
78.63999952	19.76379000
78.67999952	8.98464900
78.71999952	-1.79448800
78.75999952	-12.57363000
78.79999952	-25.15336000
78.83999952	-34.13800000
78.87999952	-43.12265000
78.91999952	-50.31281000
78.95999952	-57.50298000
78.99999952	-64.68703000
79.03999952	-70.07660000
79.07999952	-77.26676000
79.11999952	-82.65633000
79.15999952	-88.04590000
79.19999952	-93.44157000
79.23999952	-100.62560000
79.27999952	-106.01520000
79.31999952	-111.41090000
79.35999952	-115.00600000
79.39999952	-118.59490000
79.43999952	-122.19000000
79.47999952	-123.99060000
79.51999952	-123.99060000
79.55999952	-122.19000000
79.59999952	-120.39550000
79.63999952	-115.00600000
79.67999952	-109.61030000
79.71999952	-100.62560000
79.75999952	-91.64098000
79.79999952	-80.86184000
79.83999951	-70.07660000
79.87999951	-57.50298000
79.91999951	-43.12265000
79.95999951	-30.54292000
79.99999951	-17.96930000
80.03999951	-7.18405700
80.07999951	5.38956800
80.11999951	17.96930000
80.15999951	28.74844000
80.19999951	41.32816000
80.23999951	48.51222000
80.27999951	57.50298000
80.31999951	64.68703000
80.35999951	71.87719000
80.39999951	79.06125000
80.43999951	86.25141000
80.47999951	93.44157000
80.51999951	102.42620000
80.55999951	109.61030000
80.59999951	116.80040000
80.63999951	123.99060000
80.67999951	129.38020000
80.71999951	134.76970000
80.75999951	136.56420000
80.79999951	136.56420000
80.83999951	136.56420000
80.87999951	132.97520000
80.91999951	127.57960000
80.95999951	118.59490000
80.99999951	109.61030000
81.03999951	98.83114000
81.07999951	86.25141000
81.11999951	75.47227000
81.15999951	61.09195000
81.19999951	48.51222000
81.23999951	35.93859000
81.27999951	21.55827000
81.31999951	10.77914000
81.35999951	0.00000000
81.39999951	-10.77914000
81.43999951	-21.55827000
81.47999950	-28.74844000
81.51999950	-37.73308000
81.55999950	-44.92325000
81.59999950	-52.10730000
81.63999950	-59.29746000
81.67999950	-64.68703000
81.71999950	-71.87719000
81.75999950	-79.06125000
81.79999950	-86.25141000
81.83999950	-93.44157000
81.87999950	-100.62560000
81.91999950	-106.01520000
81.95999950	-113.20540000
81.99999950	-116.80040000
82.03999950	-122.19000000
82.07999950	-125.78510000
82.11999950	-129.38020000
82.15999950	-129.38020000
82.19999950	-127.57960000
82.23999950	-123.99060000
82.27999950	-120.39550000
82.31999950	-113.20540000
82.35999950	-104.22070000
82.39999950	-95.23605000
82.43999950	-82.65633000
82.47999950	-71.87719000
82.51999950	-57.50298000
82.55999950	-44.92325000
82.59999950	-30.54292000
82.63999950	-17.96930000
82.67999950	-5.38956800
82.71999950	7.18405700
82.75999950	17.96930000
82.79999950	28.74844000
82.83999950	37.73308000
82.87999950	46.71774000
82.91999950	55.70238000
82.95999950	62.89254000
82.99999950	70.07660000
83.03999950	75.47227000
83.07999950	82.65633000
83.11999949	91.64098000
83.15999949	100.62560000
83.19999949	107.81580000
83.23999949	113.20540000
83.27999949	109.61030000
83.31999949	118.59490000
83.35999949	118.59490000
83.39999949	106.01520000
83.43999949	111.41090000
83.47999949	127.57960000
83.51999949	138.36480000
83.55999949	143.75440000
83.59999949	143.75440000
83.63999949	154.53350000
83.67999949	154.53350000
83.71999949	134.76970000
83.75999949	98.83114000
83.79999949	71.87719000
83.83999949	55.70238000
83.87999949	35.93859000
83.91999949	12.57363000
83.95999949	-8.98464900
83.99999949	-19.76379000
84.03999949	-23.35887000
84.07999949	-28.74844000
84.11999949	-41.32816000
84.15999949	-52.10730000
84.19999949	-57.50298000
84.23999949	-59.29746000
84.27999949	-62.89254000
84.31999949	-70.07660000
84.35999949	-77.26676000
84.39999949	-82.65633000
84.43999949	-86.25141000
84.47999949	-88.04590000
84.51999949	-93.44157000
84.55999949	-98.83114000
84.59999949	-100.62560000
84.63999949	-100.62560000
84.67999949	-100.62560000
84.71999949	-106.01520000
84.75999948	-115.00600000
84.79999948	-120.39550000
84.83999948	-123.99060000
84.87999948	-127.57960000
84.91999948	-129.38020000
84.95999948	-129.38020000
84.99999948	-122.19000000
85.03999948	-109.61030000
85.07999948	-93.44157000
85.11999948	-79.06125000
85.15999948	-64.68703000
85.19999948	-50.31281000
85.23999948	-34.13800000
85.27999948	-19.76379000
85.31999948	-8.98464900
85.35999948	0.00000000
85.39999948	14.37422000
85.43999948	26.95395000
85.47999948	41.32816000
85.51999948	52.10730000
85.55999948	62.89254000
85.59999948	71.87719000
85.63999948	79.06125000
85.67999948	84.45692000
85.71999948	88.04590000
85.75999948	91.64098000
85.79999948	97.03055000
85.83999948	102.42620000
85.87999948	107.81580000
85.91999948	115.00600000
85.95999948	120.39550000
85.99999948	127.57960000
86.03999948	129.38020000
86.07999948	132.97520000
86.11999948	132.97520000
86.15999948	131.17470000
86.19999948	129.38020000
86.23999948	122.19000000
86.27999948	115.00600000
86.31999948	107.81580000
86.35999948	95.23605000
86.39999947	84.45692000
86.43999947	71.87719000
86.47999947	57.50298000
86.51999947	43.12265000
86.55999947	28.74844000
86.59999947	17.96930000
86.63999947	7.18405700
86.67999947	-3.58897700
86.71999947	-14.37422000
86.75999947	-25.15336000
86.79999947	-35.93859000
86.83999947	-44.92325000
86.87999947	-53.90789000
86.91999947	-62.89254000
86.95999947	-68.28211000
86.99999947	-73.67168000
87.03999947	-79.06125000
87.07999947	-84.45692000
87.11999947	-88.04590000
87.15999947	-95.23605000
87.19999947	-100.62560000
87.23999947	-106.01520000
87.27999947	-111.41090000
87.31999947	-116.80040000
87.35999947	-122.19000000
87.39999947	-123.99060000
87.43999947	-125.78510000
87.47999947	-125.78510000
87.51999947	-123.99060000
87.55999947	-120.39550000
87.59999947	-115.00600000
87.63999947	-107.81580000
87.67999947	-100.62560000
87.71999947	-89.84650000
87.75999947	-79.06125000
87.79999947	-66.48762000
87.83999947	-53.90789000
87.87999947	-41.32816000
87.91999947	-26.95395000
87.95999947	-14.37422000
87.99999947	0.00000000
88.03999946	12.57363000
88.07999946	23.35887000
88.11999946	30.54292000
88.15999946	41.32816000
88.19999946	53.90789000
88.23999946	62.89254000
88.27999946	70.07660000
88.31999946	75.47227000
88.35999946	82.65633000
88.39999946	91.64098000
88.43999946	97.03055000
88.47999946	104.22070000
88.51999946	111.41090000
88.55999946	120.39550000
88.59999946	125.78510000
88.63999946	129.38020000
88.67999946	134.76970000
88.71999946	136.56420000
88.75999946	136.56420000
88.79999946	134.76970000
88.83999946	131.17470000
88.87999946	122.19000000
88.91999946	115.00600000
88.95999946	106.01520000
88.99999946	95.23605000
89.03999946	84.45692000
89.07999946	71.87719000
89.11999946	57.50298000
89.15999946	43.12265000
89.19999946	30.54292000
89.23999946	17.96930000
89.27999946	5.38956800
89.31999946	-3.58897700
89.35999946	-14.37422000
89.39999946	-23.35887000
89.43999946	-32.34352000
89.47999946	-41.32816000
89.51999946	-48.51222000
89.55999946	-55.70238000
89.59999946	-61.09195000
89.63999946	-68.28211000
89.67999945	-73.67168000
89.71999945	-80.86184000
89.75999945	-86.25141000
89.79999945	-93.44157000
89.83999945	-100.62560000
89.87999945	-107.81580000
89.91999945	-113.20540000
89.95999945	-118.59490000
89.99999945	-122.19000000
90.03999945	-125.78510000
90.07999945	-127.57960000
90.11999945	-127.57960000
90.15999945	-125.78510000
90.19999945	-122.19000000
90.23999945	-116.80040000
90.27999945	-109.61030000
90.31999945	-100.62560000
90.35999945	-91.64098000
90.39999945	-79.06125000
90.43999945	-66.48762000
90.47999945	-55.70238000
90.51999945	-41.32816000
90.55999945	-28.74844000
90.59999945	-14.37422000
90.63999945	-1.79448800
90.67999945	8.98464900
90.71999945	21.55827000
90.75999945	30.54292000
90.79999945	41.32816000
90.83999945	48.51222000
90.87999945	57.50298000
90.91999945	64.68703000
90.95999945	70.07660000
90.99999945	77.26676000
91.03999945	84.45692000
91.07999945	93.44157000
91.11999945	100.62560000
91.15999945	109.61030000
91.19999945	118.59490000
91.23999945	123.99060000
91.27999945	129.38020000
91.31999945	134.76970000
91.35999944	136.56420000
91.39999944	138.36480000
91.43999944	136.56420000
91.47999944	134.76970000
91.51999944	127.57960000
91.55999944	120.39550000
91.59999944	111.41090000
91.63999944	100.62560000
91.67999944	86.25141000
91.71999944	73.67168000
91.75999944	61.09195000
91.79999944	46.71774000
91.83999944	32.34352000
91.87999944	19.76379000
91.91999944	7.18405700
91.95999944	-3.58897700
91.99999944	-14.37422000
92.03999944	-23.35887000
92.07999944	-32.34352000
92.11999944	-39.52757000
92.15999944	-46.71774000
92.19999944	-53.90789000
92.23999944	-59.29746000
92.27999944	-64.68703000
92.31999944	-71.87719000
92.35999944	-77.26676000
92.39999944	-84.45692000
92.43999944	-89.84650000
92.47999944	-97.03055000
92.51999944	-104.22070000
92.55999944	-111.41090000
92.59999944	-115.00600000
92.63999944	-120.39550000
92.67999944	-123.99060000
92.71999944	-127.57960000
92.75999944	-129.38020000
92.79999944	-129.38020000
92.83999944	-125.78510000
92.87999944	-120.39550000
92.91999944	-115.00600000
92.95999944	-106.01520000
92.99999943	-95.23605000
93.03999943	-80.86184000
93.07999943	-79.06125000
93.11999943	-61.09195000
93.15999943	-41.32816000
93.19999943	-25.15336000
93.23999943	-19.76379000
93.27999943	-5.38956800
93.31999943	7.18405700
93.35999943	23.35887000
93.39999943	30.54292000
93.43999943	39.52757000
93.47999943	48.51222000
93.51999943	57.50298000
93.55999943	64.68703000
93.59999943	70.07660000
93.63999943	77.26676000
93.67999943	82.65633000
93.71999943	89.84650000
93.75999943	98.83114000
93.79999943	107.81580000
93.83999943	113.20540000
93.87999943	118.59490000
93.91999943	125.78510000
93.95999943	131.17470000
93.99999943	134.76970000
94.03999943	134.76970000
94.07999943	136.56420000
94.11999943	134.76970000
94.15999943	129.38020000
94.19999943	122.19000000
94.23999943	115.00600000
94.27999943	104.22070000
94.31999943	93.44157000
94.35999943	79.06125000
94.39999943	66.48762000
94.43999943	52.10730000
94.47999943	37.73308000
94.51999943	25.15336000
94.55999943	12.57363000
94.59999943	-1.79448800
94.63999942	-12.57363000
94.67999942	-21.55827000
94.71999942	-30.54292000
94.75999942	-39.52757000
94.79999942	-48.51222000
94.83999942	-53.90789000
94.87999942	-59.29746000
94.91999942	-64.68703000
94.95999942	-71.87719000
94.99999942	-77.26676000
95.03999942	-82.65633000
95.07999942	-89.84650000
95.11999942	-95.23605000
95.15999942	-100.62560000
95.19999942	-107.81580000
95.23999942	-113.20540000
95.27999942	-116.80040000
95.31999942	-122.19000000
95.35999942	-125.78510000
95.39999942	-125.78510000
95.43999942	-125.78510000
95.47999942	-123.99060000
95.51999942	-122.19000000
95.55999942	-115.00600000
95.59999942	-109.61030000
95.63999942	-100.62560000
95.67999942	-89.84650000
95.71999942	-77.26676000
95.75999942	-62.89254000
95.79999942	-50.31281000
95.83999942	-35.93859000
95.87999942	-21.55827000
95.91999942	-7.18405700
95.95999942	3.58897700
95.99999942	16.16870000
96.03999942	28.74844000
96.07999942	37.73308000
96.11999942	48.51222000
96.15999942	55.70238000
96.19999942	62.89254000
96.23999942	71.87719000
96.27999941	77.26676000
96.31999941	82.65633000
96.35999941	89.84650000
96.39999941	97.03055000
96.43999941	106.01520000
96.47999941	111.41090000
96.51999941	118.59490000
96.55999941	125.78510000
96.59999941	129.38020000
96.63999941	134.76970000
96.67999941	136.56420000
96.71999941	136.56420000
96.75999941	134.76970000
96.79999941	129.38020000
96.83999941	125.78510000
96.87999941	115.00600000
96.91999941	106.01520000
96.95999941	93.44157000
96.99999941	82.65633000
97.03999941	70.07660000
97.07999941	55.70238000
97.11999941	41.32816000
97.15999941	28.74844000
97.19999941	14.37422000
97.23999941	1.79448800
97.27999941	-8.98464900
97.31999941	-19.76379000
97.35999941	-28.74844000
97.39999941	-37.73308000
97.43999941	-44.92325000
97.47999941	-52.10730000
97.51999941	-59.29746000
97.55999941	-64.68703000
97.59999941	-70.07660000
97.63999941	-77.26676000
97.67999941	-82.65633000
97.71999941	-88.04590000
97.75999941	-95.23605000
97.79999941	-100.62560000
97.83999941	-107.81580000
97.87999941	-113.20540000
97.91999940	-118.59490000
97.95999940	-123.99060000
97.99999940	-129.38020000
98.03999940	-125.78510000
98.07999940	-123.99060000
98.11999940	-125.78510000
98.15999940	-123.99060000
98.19999940	-118.59490000
98.23999940	-109.61030000
98.27999940	-100.62560000
98.31999940	-91.64098000
98.35999940	-79.06125000
98.39999940	-66.48762000
98.43999940	-52.10730000
98.47999940	-39.52757000
98.51999940	-25.15336000
98.55999940	-10.77914000
98.59999940	0.00000000
98.63999940	14.37422000
98.67999940	25.15336000
98.71999940	35.93859000
98.75999940	44.92325000
98.79999940	53.90789000
98.83999940	61.09195000
98.87999940	68.28211000
98.91999940	73.67168000
98.95999940	80.86184000
98.99999940	88.04590000
99.03999940	97.03055000
99.07999940	104.22070000
99.11999940	111.41090000
99.15999940	118.59490000
99.19999940	125.78510000
99.23999940	129.38020000
99.27999940	136.56420000
99.31999940	136.56420000
99.35999940	138.36480000
99.39999940	132.97520000
99.43999940	132.97520000
99.47999940	127.57960000
99.51999940	118.59490000
99.55999939	107.81580000
99.59999939	95.23605000
99.63999939	84.45692000
99.67999939	71.87719000
99.71999939	55.70238000
99.75999939	43.12265000
99.79999939	30.54292000
99.83999939	17.96930000
99.87999939	5.38956800
99.91999939	-7.18405700
99.95999939	-16.16870000
99.99999939	-26.95395000
100.03999939	-35.93859000
100.07999939	-43.12265000
100.11999939	-50.31281000
100.15999939	-57.50298000
100.19999939	-62.89254000
100.23999939	-68.28211000
100.27999939	-75.47227000
100.31999939	-80.86184000
100.35999939	-88.04590000
100.39999939	-93.44157000
100.43999939	-100.62560000
100.47999939	-107.81580000
100.51999939	-111.41090000
100.55999939	-116.80040000
100.59999939	-122.19000000
100.63999939	-125.78510000
100.67999939	-129.38020000
100.71999939	-127.57960000
100.75999939	-127.57960000
100.79999939	-123.99060000
100.83999939	-118.59490000
100.87999939	-113.20540000
100.91999939	-102.42620000
100.95999939	-93.44157000
100.99999939	-80.86184000
101.03999939	-68.28211000
101.07999939	-55.70238000
101.11999939	-43.12265000
101.15999939	-28.74844000
101.19999938	-14.37422000
101.23999938	0.00000000
101.27999938	10.77914000
101.31999938	23.35887000
101.35999938	32.34352000
101.39999938	43.12265000
101.43999938	50.31281000
101.47999938	59.29746000
101.51999938	66.48762000
101.55999938	71.87719000
101.59999938	79.06125000
101.63999938	86.25141000
101.67999938	93.44157000
101.71999938	100.62560000
101.75999938	109.61030000
101.79999938	115.00600000
101.83999938	122.19000000
101.87999938	127.57960000
101.91999938	132.97520000
101.95999938	134.76970000
101.99999938	136.56420000
102.03999938	136.56420000
102.07999938	132.97520000
102.11999938	127.57960000
102.15999938	120.39550000
102.19999938	111.41090000
102.23999938	100.62560000
102.27999938	88.04590000
102.31999938	75.47227000
102.35999938	61.09195000
102.39999938	46.71774000
102.43999938	32.34352000
102.47999938	19.76379000
102.51999938	7.18405700
102.55999938	-3.58897700
102.59999938	-14.37422000
102.63999938	-23.35887000
102.67999938	-32.34352000
102.71999938	-41.32816000
102.75999938	-48.51222000
102.79999938	-55.70238000
102.83999937	-61.09195000
102.87999937	-68.28211000
102.91999937	-73.67168000
102.95999937	-79.06125000
102.99999937	-86.25141000
103.03999937	-91.64098000
103.07999937	-98.83114000
103.11999937	-104.22070000
103.15999937	-109.61030000
103.19999937	-115.00600000
103.23999937	-120.39550000
103.27999937	-123.99060000
103.31999937	-127.57960000
103.35999937	-129.38020000
103.39999937	-127.57960000
103.43999937	-123.99060000
103.47999937	-122.19000000
103.51999937	-115.00600000
103.55999937	-107.81580000
103.59999937	-97.03055000
103.63999937	-86.25141000
103.67999937	-71.87719000
103.71999937	-59.29746000
103.75999937	-44.92325000
103.79999937	-32.34352000
103.83999937	-19.76379000
103.87999937	-5.38956800
103.91999937	7.18405700
103.95999937	17.96930000
103.99999937	28.74844000
104.03999937	39.52757000
104.07999937	48.51222000
104.11999937	57.50298000
104.15999937	64.68703000
104.19999937	71.87719000
104.23999937	77.26676000
104.27999937	84.45692000
104.31999937	91.64098000
104.35999937	100.62560000
104.39999937	106.01520000
104.43999937	115.00600000
104.47999937	122.19000000
104.51999936	127.57960000
104.55999936	132.97520000
104.59999936	136.56420000
104.63999936	138.36480000
104.67999936	136.56420000
104.71999936	134.76970000
104.75999936	129.38020000
104.79999936	122.19000000
104.83999936	113.20540000
104.87999936	102.42620000
104.91999936	91.64098000
104.95999936	79.06125000
104.99999936	64.68703000
105.03999936	52.10730000
105.07999936	37.73308000
105.11999936	25.15336000
105.15999936	12.57363000
105.19999936	0.00000000
105.23999936	-10.77914000
105.27999936	-21.55827000
105.31999936	-30.54292000
105.35999936	-39.52757000
105.39999936	-46.71774000
105.43999936	-53.90789000
105.47999936	-61.09195000
105.51999936	-66.48762000
105.55999936	-71.87719000
105.59999936	-79.06125000
105.63999936	-84.45692000
105.67999936	-91.64098000
105.71999936	-97.03055000
105.75999936	-102.42620000
105.79999936	-109.61030000
105.83999936	-115.00600000
105.87999936	-120.39550000
105.91999936	-123.99060000
105.95999936	-125.78510000
105.99999936	-127.57960000
106.03999936	-127.57960000
106.07999936	-125.78510000
106.11999936	-122.19000000
106.15999935	-115.00600000
106.19999935	-107.81580000
106.23999935	-98.83114000
106.27999935	-88.04590000
106.31999935	-75.47227000
106.35999935	-62.89254000
106.39999935	-48.51222000
106.43999935	-35.93859000
106.47999935	-21.55827000
106.51999935	-7.18405700
106.55999935	5.38956800
106.59999935	17.96930000
106.63999935	28.74844000
106.67999935	37.73308000
106.71999935	48.51222000
106.75999935	55.70238000
106.79999935	62.89254000
106.83999935	71.87719000
106.87999935	75.47227000
106.91999935	84.45692000
106.95999935	89.84650000
106.99999935	98.83114000
107.03999935	106.01520000
107.07999935	113.20540000
107.11999935	118.59490000
107.15999935	125.78510000
107.19999935	129.38020000
107.23999935	134.76970000
107.27999935	134.76970000
107.31999935	136.56420000
107.35999935	134.76970000
107.39999935	129.38020000
107.43999935	122.19000000
107.47999935	115.00600000
107.51999935	106.01520000
107.55999935	93.44157000
107.59999935	82.65633000
107.63999935	71.87719000
107.67999935	71.87719000
107.71999935	75.47227000
107.75999935	62.89254000
107.79999934	34.13800000
107.83999934	0.00000000
107.87999934	-14.37422000
107.91999934	-28.74844000
107.95999934	-61.09195000
107.99999934	-89.84650000
108.03999934	-95.23605000
108.07999934	-84.45692000
108.11999934	-70.07660000
108.15999934	-70.07660000
108.19999934	-73.67168000
108.23999934	-70.07660000
108.27999934	-62.89254000
108.31999934	-68.28211000
108.35999934	-82.65633000
108.39999934	-95.23605000
108.43999934	-98.83114000
108.47999934	-98.83114000
108.51999934	-102.42620000
108.55999934	-113.20540000
108.59999934	-120.39550000
108.63999934	-122.19000000
108.67999934	-120.39550000
108.71999934	-118.59490000
108.75999934	-118.59490000
108.79999934	-116.80040000
108.83999934	-109.61030000
108.87999934	-100.62560000
108.91999934	-93.44157000
108.95999934	-88.04590000
108.99999934	-82.65633000
109.03999934	-71.87719000
109.07999934	-55.70238000
109.11999934	-35.93859000
109.15999934	-17.96930000
109.19999934	-1.79448800
109.23999934	17.96930000
109.27999934	34.13800000
109.31999934	50.31281000
109.35999934	57.50298000
109.39999934	61.09195000
109.43999933	64.68703000
109.47999933	70.07660000
109.51999933	73.67168000
109.55999933	79.06125000
109.59999933	86.25141000
109.63999933	97.03055000
109.67999933	107.81580000
109.71999933	115.00600000
109.75999933	122.19000000
109.79999933	123.99060000
109.83999933	127.57960000
109.87999933	129.38020000
109.91999933	127.57960000
109.95999933	127.57960000
109.99999933	123.99060000
110.03999933	122.19000000
110.07999933	120.39550000
110.11999933	115.00600000
110.15999933	107.81580000
110.19999933	98.83114000
110.23999933	88.04590000
110.27999933	75.47227000
110.31999933	61.09195000
110.35999933	48.51222000
110.39999933	34.13800000
110.43999933	21.55827000
110.47999933	10.77914000
110.51999933	-1.79448800
110.55999933	-14.37422000
110.59999933	-25.15336000
110.63999933	-35.93859000
110.67999933	-43.12265000
110.71999933	-52.10730000
110.75999933	-57.50298000
110.79999933	-64.68703000
110.83999933	-70.07660000
110.87999933	-77.26676000
110.91999933	-84.45692000
110.95999933	-91.64098000
110.99999933	-98.83114000
111.03999933	-106.01520000
111.07999932	-111.41090000
111.11999932	-115.00600000
111.15999932	-116.80040000
111.19999932	-120.39550000
111.23999932	-122.19000000
111.27999932	-122.19000000
111.31999932	-122.19000000
111.35999932	-122.19000000
111.39999932	-120.39550000
111.43999932	-116.80040000
111.47999932	-111.41090000
111.51999932	-102.42620000
111.55999932	-93.44157000
111.59999932	-80.86184000
111.63999932	-68.28211000
111.67999932	-55.70238000
111.71999932	-43.12265000
111.75999932	-28.74844000
111.79999932	-16.16870000
111.83999932	-3.58897700
111.87999932	7.18405700
111.91999932	19.76379000
111.95999932	30.54292000
111.99999932	41.32816000
112.03999932	50.31281000
112.07999932	57.50298000
112.11999932	66.48762000
112.15999932	73.67168000
112.19999932	80.86184000
112.23999932	88.04590000
112.27999932	97.03055000
112.31999932	104.22070000
112.35999932	113.20540000
112.39999932	118.59490000
112.43999932	125.78510000
112.47999932	129.38020000
112.51999932	134.76970000
112.55999932	136.56420000
112.59999932	136.56420000
112.63999932	134.76970000
112.67999932	131.17470000
112.71999931	120.39550000
112.75999931	113.20540000
112.79999931	109.61030000
112.83999931	100.62560000
112.87999931	86.25141000
112.91999931	71.87719000
112.95999931	59.29746000
112.99999931	46.71774000
113.03999931	32.34352000
113.07999931	19.76379000
113.11999931	8.98464900
113.15999931	-1.79448800
113.19999931	-12.57363000
113.23999931	-21.55827000
113.27999931	-30.54292000
113.31999931	-37.73308000
113.35999931	-46.71774000
113.39999931	-53.90789000
113.43999931	-59.29746000
113.47999931	-66.48762000
113.51999931	-73.67168000
113.55999931	-80.86184000
113.59999931	-86.25141000
113.63999931	-93.44157000
113.67999931	-100.62560000
113.71999931	-106.01520000
113.75999931	-113.20540000
113.79999931	-116.80040000
113.83999931	-123.99060000
113.87999931	-125.78510000
113.91999931	-127.57960000
113.95999931	-127.57960000
113.99999931	-127.57960000
114.03999931	-123.99060000
114.07999931	-118.59490000
114.11999931	-113.20540000
114.15999931	-102.42620000
114.19999931	-93.44157000
114.23999931	-82.65633000
114.27999931	-70.07660000
114.31999931	-57.50298000
114.35999930	-43.12265000
114.39999930	-30.54292000
114.43999930	-17.96930000
114.47999930	-5.38956800
114.51999930	7.18405700
114.55999930	17.96930000
114.59999930	28.74844000
114.63999930	39.52757000
114.67999930	48.51222000
114.71999930	55.70238000
114.75999930	62.89254000
114.79999930	70.07660000
114.83999930	77.26676000
114.87999930	82.65633000
114.91999930	91.64098000
114.95999930	100.62560000
114.99999930	107.81580000
115.03999930	115.00600000
115.07999930	123.99060000
115.11999930	129.38020000
115.15999930	134.76970000
115.19999930	136.56420000
115.23999930	138.36480000
115.27999930	136.56420000
115.31999930	134.76970000
115.35999930	129.38020000
115.39999930	122.19000000
115.43999930	111.41090000
115.47999930	100.62560000
115.51999930	89.84650000
115.55999930	75.47227000
115.59999930	62.89254000
115.63999930	48.51222000
115.67999930	34.13800000
115.71999930	21.55827000
115.75999930	10.77914000
115.79999930	-1.79448800
115.83999930	-12.57363000
115.87999930	-23.35887000
115.91999930	-30.54292000
115.95999930	-39.52757000
115.99999930	-46.71774000
116.03999929	-52.10730000
116.07999929	-59.29746000
116.11999929	-64.68703000
116.15999929	-71.87719000
116.19999929	-77.26676000
116.23999929	-84.45692000
116.27999929	-89.84650000
116.31999929	-97.03055000
116.35999929	-104.22070000
116.39999929	-109.61030000
116.43999929	-115.00600000
116.47999929	-111.41090000
116.51999929	-100.62560000
116.55999929	-91.64098000
116.59999929	-104.22070000
116.63999929	-122.19000000
116.67999929	-123.99060000
116.71999929	-129.38020000
116.75999929	-140.15930000
116.79999929	-150.94450000
116.83999929	-150.94450000
116.87999929	-127.57960000
116.91999929	-93.44157000
116.95999929	-68.28211000
116.99999929	-52.10730000
117.03999929	-32.34352000
117.07999929	-5.38956800
117.11999929	16.16870000
117.15999929	23.35887000
117.19999929	26.95395000
117.23999929	34.13800000
117.27999929	50.31281000
117.31999929	62.89254000
117.35999929	68.28211000
117.39999929	70.07660000
117.43999929	73.67168000
117.47999929	82.65633000
117.51999929	91.64098000
117.55999929	97.03055000
117.59999929	100.62560000
117.63999929	107.81580000
117.67999928	109.61030000
117.71999928	113.20540000
117.75999928	122.19000000
117.79999928	125.78510000
117.83999928	116.80040000
117.87999928	118.59490000
117.91999928	122.19000000
117.95999928	129.38020000
117.99999928	125.78510000
118.03999928	123.99060000
118.07999928	122.19000000
118.11999928	118.59490000
118.15999928	106.01520000
118.19999928	89.84650000
118.23999928	71.87719000
118.27999928	55.70238000
118.31999928	37.73308000
118.35999928	25.15336000
118.39999928	12.57363000
118.43999928	0.00000000
118.47999928	-8.98464900
118.51999928	-16.16870000
118.55999928	-25.15336000
118.59999928	-37.73308000
118.63999928	-48.51222000
118.67999928	-57.50298000
118.71999928	-64.68703000
118.75999928	-73.67168000
118.79999928	-80.86184000
118.83999928	-86.25141000
118.87999928	-88.04590000
118.91999928	-91.64098000
118.95999928	-95.23605000
118.99999928	-100.62560000
119.03999928	-104.22070000
119.07999928	-109.61030000
119.11999928	-115.00600000
119.15999928	-118.59490000
119.19999928	-122.19000000
119.23999928	-123.99060000
119.27999928	-122.19000000
119.31999927	-122.19000000
119.35999927	-118.59490000
119.39999927	-115.00600000
119.43999927	-109.61030000
119.47999927	-100.62560000
119.51999927	-89.84650000
119.55999927	-79.06125000
119.59999927	-64.68703000
119.63999927	-52.10730000
119.67999927	-37.73308000
119.71999927	-25.15336000
119.75999927	-12.57363000
119.79999927	0.00000000
119.83999927	12.57363000
119.87999927	21.55827000
119.91999927	34.13800000
119.95999927	44.92325000
119.99999927	55.70238000
120.03999927	64.68703000
120.07999927	71.87719000
120.11999927	79.06125000
120.15999927	86.25141000
120.19999927	91.64098000
120.23999927	98.83114000
120.27999927	104.22070000
120.31999927	111.41090000
120.35999927	116.80040000
120.39999927	123.99060000
120.43999927	129.38020000
120.47999927	132.97520000
120.51999927	136.56420000
120.55999927	134.76970000
120.59999927	132.97520000
120.63999927	129.38020000
120.67999927	122.19000000
120.71999927	113.20540000
120.75999927	106.01520000
120.79999927	93.44157000
120.83999927	82.65633000
120.87999927	70.07660000
120.91999927	57.50298000
120.95999926	43.12265000
120.99999926	30.54292000
121.03999926	16.16870000
121.07999926	5.38956800
121.11999926	-5.38956800
121.15999926	-16.16870000
121.19999926	-25.15336000
121.23999926	-35.93859000
121.27999926	-43.12265000
121.31999926	-50.31281000
121.35999926	-57.50298000
121.39999926	-64.68703000
121.43999926	-70.07660000
121.47999926	-79.06125000
121.51999926	-82.65633000
121.55999926	-89.84650000
121.59999926	-95.23605000
121.63999926	-100.62560000
121.67999926	-107.81580000
121.71999926	-113.20540000
121.75999926	-116.80040000
121.79999926	-122.19000000
121.83999926	-125.78510000
121.87999926	-127.57960000
121.91999926	-127.57960000
121.95999926	-125.78510000
121.99999926	-122.19000000
122.03999926	-115.00600000
122.07999926	-111.41090000
122.11999926	-100.62560000
122.15999926	-89.84650000
122.19999926	-79.06125000
122.23999926	-66.48762000
122.27999926	-53.90789000
122.31999926	-41.32816000
122.35999926	-25.15336000
122.39999926	-14.37422000
122.43999926	0.00000000
122.47999926	12.57363000
122.51999926	21.55827000
122.55999926	28.74844000
122.59999925	39.52757000
122.63999925	52.10730000
122.67999925	61.09195000
122.71999925	66.48762000
122.75999925	71.87719000
122.79999925	79.06125000
122.83999925	86.25141000
122.87999925	93.44157000
122.91999925	102.42620000
122.95999925	111.41090000
122.99999925	118.59490000
123.03999925	125.78510000
123.07999925	129.38020000
123.11999925	134.76970000
123.15999925	136.56420000
123.19999925	136.56420000
123.23999925	136.56420000
123.27999925	132.97520000
123.31999925	127.57960000
123.35999925	118.59490000
123.39999925	107.81580000
123.43999925	97.03055000
123.47999925	84.45692000
123.51999925	71.87719000
123.55999925	57.50298000
123.59999925	44.92325000
123.63999925	30.54292000
123.67999925	17.96930000
123.71999925	7.18405700
123.75999925	-3.58897700
123.79999925	-14.37422000
123.83999925	-23.35887000
123.87999925	-30.54292000
123.91999925	-39.52757000
123.95999925	-46.71774000
123.99999925	-53.90789000
124.03999925	-61.09195000
124.07999925	-66.48762000
124.11999925	-71.87719000
124.15999925	-79.06125000
124.19999925	-86.25141000
124.23999924	-93.44157000
124.27999924	-100.62560000
124.31999924	-106.01520000
124.35999924	-111.41090000
124.39999924	-116.80040000
124.43999924	-122.19000000
124.47999924	-125.78510000
124.51999924	-127.57960000
124.55999924	-127.57960000
124.59999924	-127.57960000
124.63999924	-123.99060000
124.67999924	-120.39550000
124.71999924	-111.41090000
124.75999924	-102.42620000
124.79999924	-93.44157000
124.83999924	-82.65633000
124.87999924	-68.28211000
124.91999924	-57.50298000
124.95999924	-43.12265000
124.99999924	-28.74844000
125.03999924	-16.16870000
125.07999924	-1.79448800
125.11999924	8.98464900
125.15999924	21.55827000
125.19999924	30.54292000
125.23999924	41.32816000
125.27999924	48.51222000
125.31999924	55.70238000
125.35999924	62.89254000
125.39999924	70.07660000
125.43999924	77.26676000
125.47999924	82.65633000
125.51999924	91.64098000
125.55999924	98.83114000
125.59999924	107.81580000
125.63999924	115.00600000
125.67999924	122.19000000
125.71999924	129.38020000
125.75999924	132.97520000
125.79999924	136.56420000
125.83999924	138.36480000
125.87999923	136.56420000
125.91999923	134.76970000
125.95999923	129.38020000
125.99999923	120.39550000
126.03999923	113.20540000
126.07999923	102.42620000
126.11999923	89.84650000
126.15999923	75.47227000
126.19999923	62.89254000
126.23999923	48.51222000
126.27999923	34.13800000
126.31999923	21.55827000
126.35999923	8.98464900
126.39999923	-3.58897700
126.43999923	-14.37422000
126.47999923	-23.35887000
126.51999923	-30.54292000
126.55999923	-39.52757000
126.59999923	-46.71774000
126.63999923	-53.90789000
126.67999923	-59.29746000
126.71999923	-64.68703000
126.75999923	-71.87719000
126.79999923	-77.26676000
126.83999923	-84.45692000
126.87999923	-89.84650000
126.91999923	-95.23605000
126.95999923	-102.42620000
126.99999923	-109.61030000
127.03999923	-115.00600000
127.07999923	-120.39550000
127.11999923	-123.99060000
127.15999923	-125.78510000
127.19999923	-127.57960000
127.23999923	-129.38020000
127.27999923	-125.78510000
127.31999923	-122.19000000
127.35999923	-115.00600000
127.39999923	-107.81580000
127.43999923	-97.03055000
127.47999923	-84.45692000
127.51999923	-79.06125000
127.55999922	-66.48762000
127.59999922	-43.12265000
127.63999922	-26.95395000
127.67999922	-19.76379000
127.71999922	-7.18405700
127.75999922	5.38956800
127.79999922	21.55827000
127.83999922	30.54292000
127.87999922	39.52757000
127.91999922	48.51222000
127.95999922	57.50298000
127.99999922	64.68703000
128.03999922	70.07660000
128.07999922	77.26676000
128.11999922	84.45692000
128.15999922	89.84650000
128.19999922	98.83114000
128.23999922	106.01520000
128.27999922	113.20540000
128.31999922	118.59490000
128.35999922	125.78510000
128.39999922	129.38020000
128.43999922	134.76970000
128.47999922	136.56420000
128.51999922	136.56420000
128.55999922	132.97520000
128.59999922	129.38020000
128.63999922	122.19000000
128.67999922	115.00600000
128.71999922	106.01520000
128.75999922	93.44157000
128.79999922	80.86184000
128.83999922	68.28211000
128.87999922	53.90789000
128.91999922	39.52757000
128.95999922	26.95395000
128.99999922	14.37422000
129.03999922	0.00000000
129.07999922	-10.77914000
129.11999922	-21.55827000
129.15999922	-30.54292000
129.19999921	-39.52757000
129.23999921	-46.71774000
129.27999921	-53.90789000
129.31999921	-59.29746000
129.35999921	-64.68703000
129.39999921	-71.87719000
129.43999921	-77.26676000
129.47999921	-82.65633000
129.51999921	-89.84650000
129.55999921	-95.23605000
129.59999921	-100.62560000
129.63999921	-107.81580000
129.67999921	-113.20540000
129.71999921	-116.80040000
129.75999921	-122.19000000
129.79999921	-123.99060000
129.83999921	-127.57960000
129.87999921	-127.57960000
129.91999921	-125.78510000
129.95999921	-120.39550000
129.99999921	-116.80040000
130.03999921	-109.61030000
130.07999921	-100.62560000
130.11999921	-89.84650000
130.15999921	-77.26676000
130.19999921	-64.68703000
130.23999921	-52.10730000
130.27999921	-35.93859000
130.31999921	-23.35887000
130.35999921	-10.77914000
130.39999921	3.58897700
130.43999921	16.16870000
130.47999921	26.95395000
130.51999921	35.93859000
130.55999921	46.71774000
130.59999921	55.70238000
130.63999921	62.89254000
130.67999921	70.07660000
130.71999921	77.26676000
130.75999921	82.65633000
130.79999921	89.84650000
130.83999920	97.03055000
130.87999920	104.22070000
130.91999920	111.41090000
130.95999920	118.59490000
130.99999920	125.78510000
131.03999920	129.38020000
131.07999920	134.76970000
131.11999920	136.56420000
131.15999920	136.56420000
131.19999920	134.76970000
131.23999920	129.38020000
131.27999920	123.99060000
131.31999920	116.80040000
131.35999920	106.01520000
131.39999920	95.23605000
131.43999920	82.65633000
131.47999920	71.87719000
131.51999920	57.50298000
131.55999920	43.12265000
131.59999920	28.74844000
131.63999920	17.96930000
131.67999920	3.58897700
131.71999920	-7.18405700
131.75999920	-17.96930000
131.79999920	-26.95395000
131.83999920	-35.93859000
131.87999920	-44.92325000
131.91999920	-52.10730000
131.95999920	-57.50298000
131.99999920	-64.68703000
132.03999920	-70.07660000
132.07999920	-77.26676000
132.11999920	-82.65633000
132.15999920	-88.04590000
132.19999920	-95.23605000
132.23999920	-100.62560000
132.27999920	-107.81580000
132.31999920	-111.41090000
132.35999920	-116.80040000
132.39999920	-123.99060000
132.43999920	-129.38020000
132.47999919	-125.78510000
132.51999919	-123.99060000
132.55999919	-125.78510000
132.59999919	-122.19000000
132.63999919	-118.59490000
132.67999919	-111.41090000
132.71999919	-100.62560000
132.75999919	-91.64098000
132.79999919	-79.06125000
132.83999919	-66.48762000
132.87999919	-52.10730000
132.91999919	-39.52757000
132.95999919	-25.15336000
132.99999919	-12.57363000
133.03999919	0.00000000
133.07999919	12.57363000
133.11999919	25.15336000
133.15999919	34.13800000
133.19999919	44.92325000
133.23999919	52.10730000
133.27999919	61.09195000
133.31999919	68.28211000
133.35999919	73.67168000
133.39999919	80.86184000
133.43999919	88.04590000
133.47999919	95.23605000
133.51999919	102.42620000
133.55999919	109.61030000
133.59999919	118.59490000
133.63999919	125.78510000
133.67999919	131.17470000
133.71999919	136.56420000
133.75999919	136.56420000
133.79999919	138.36480000
133.83999919	134.76970000
133.87999919	132.97520000
133.91999919	127.57960000
133.95999919	118.59490000
133.99999919	109.61030000
134.03999919	97.03055000
134.07999919	84.45692000
134.11999918	71.87719000
134.15999918	57.50298000
134.19999918	44.92325000
134.23999918	30.54292000
134.27999918	17.96930000
134.31999918	7.18405700
134.35999918	-5.38956800
134.39999918	-16.16870000
134.43999918	-25.15336000
134.47999918	-34.13800000
134.51999918	-41.32816000
134.55999918	-50.31281000
134.59999918	-55.70238000
134.63999918	-62.89254000
134.67999918	-68.28211000
134.71999918	-73.67168000
134.75999918	-80.86184000
134.79999918	-86.25141000
134.83999918	-93.44157000
134.87999918	-98.83114000
134.91999918	-106.01520000
134.95999918	-111.41090000
134.99999918	-116.80040000
135.03999918	-122.19000000
135.07999918	-125.78510000
135.11999918	-127.57960000
135.15999918	-127.57960000
135.19999918	-127.57960000
135.23999918	-123.99060000
135.27999918	-118.59490000
135.31999918	-113.20540000
135.35999918	-104.22070000
135.39999918	-93.44157000
135.43999918	-82.65633000
135.47999918	-70.07660000
135.51999918	-57.50298000
135.55999918	-43.12265000
135.59999918	-28.74844000
135.63999918	-14.37422000
135.67999918	-1.79448800
135.71999918	10.77914000
135.75999917	21.55827000
135.79999917	32.34352000
135.83999917	43.12265000
135.87999917	52.10730000
135.91999917	57.50298000
135.95999917	66.48762000
135.99999917	71.87719000
136.03999917	79.06125000
136.07999917	86.25141000
136.11999917	93.44157000
136.15999917	100.62560000
136.19999917	109.61030000
136.23999917	115.00600000
136.27999917	122.19000000
136.31999917	129.38020000
136.35999917	132.97520000
136.39999917	136.56420000
136.43999917	138.36480000
136.47999917	136.56420000
136.51999917	132.97520000
136.55999917	129.38020000
136.59999917	120.39550000
136.63999917	113.20540000
136.67999917	102.42620000
136.71999917	88.04590000
136.75999917	77.26676000
136.79999917	62.89254000
136.83999917	48.51222000
136.87999917	35.93859000
136.91999917	21.55827000
136.95999917	8.98464900
136.99999917	-1.79448800
137.03999917	-12.57363000
137.07999917	-23.35887000
137.11999917	-32.34352000
137.15999917	-41.32816000
137.19999917	-48.51222000
137.23999917	-53.90789000
137.27999917	-59.29746000
137.31999917	-66.48762000
137.35999917	-71.87719000
137.39999916	-86.25141000
137.43999916	-86.25141000
137.47999916	-86.25141000
137.51999916	-95.23605000
137.55999916	-106.01520000
137.59999916	-111.41090000
137.63999916	-115.00600000
137.67999916	-116.80040000
137.71999916	-123.99060000
137.75999916	-127.57960000
137.79999916	-127.57960000
137.83999916	-127.57960000
137.87999916	-123.99060000
137.91999916	-120.39550000
137.95999916	-115.00600000
137.99999916	-107.81580000
138.03999916	-97.03055000
138.07999916	-84.45692000
138.11999916	-71.87719000
138.15999916	-61.09195000
138.19999916	-46.71774000
138.23999916	-32.34352000
138.27999916	-17.96930000
138.31999916	-5.38956800
138.35999916	7.18405700
138.39999916	19.76379000
138.43999916	30.54292000
138.47999916	41.32816000
138.51999916	48.51222000
138.55999916	57.50298000
138.59999916	64.68703000
138.63999916	71.87719000
138.67999916	77.26676000
138.71999916	84.45692000
138.75999916	91.64098000
138.79999916	100.62560000
138.83999916	107.81580000
138.87999916	113.20540000
138.91999916	122.19000000
138.95999916	127.57960000
138.99999916	131.17470000
139.03999915	136.56420000
139.07999915	136.56420000
139.11999915	136.56420000
139.15999915	134.76970000
139.19999915	129.38020000
139.23999915	122.19000000
139.27999915	115.00600000
139.31999915	104.22070000
139.35999915	93.44157000
139.39999915	79.06125000
139.43999915	64.68703000
139.47999915	52.10730000
139.51999915	37.73308000
139.55999915	25.15336000
139.59999915	12.57363000
139.63999915	0.00000000
139.67999915	-10.77914000
139.71999915	-21.55827000
139.75999915	-30.54292000
139.79999915	-37.73308000
139.83999915	-46.71774000
139.87999915	-53.90789000
139.91999915	-59.29746000
139.95999915	-64.68703000
139.99999915	-71.87719000
140.03999915	-79.06125000
140.07999915	-84.45692000
140.11999915	-89.84650000
140.15999915	-95.23605000
140.19999915	-102.42620000
140.23999915	-107.81580000
140.27999915	-115.00600000
140.31999915	-118.59490000
140.35999915	-122.19000000
140.39999915	-125.78510000
140.43999915	-127.57960000
140.47999915	-127.57960000
140.51999915	-125.78510000
140.55999915	-120.39550000
140.59999915	-115.00600000
140.63999915	-107.81580000
140.67999915	-98.83114000
140.71999914	-88.04590000
140.75999914	-75.47227000
140.79999914	-62.89254000
140.83999914	-50.31281000
140.87999914	-35.93859000
140.91999914	-21.55827000
140.95999914	-7.18405700
140.99999914	3.58897700
141.03999914	16.16870000
141.07999914	28.74844000
141.11999914	35.93859000
141.15999914	48.51222000
141.19999914	55.70238000
141.23999914	62.89254000
141.27999914	71.87719000
141.31999914	77.26676000
141.35999914	84.45692000
141.39999914	91.64098000
141.43999914	98.83114000
141.47999914	106.01520000
141.51999914	113.20540000
141.55999914	120.39550000
141.59999914	127.57960000
141.63999914	131.17470000
141.67999914	134.76970000
141.71999914	136.56420000
141.75999914	138.36480000
141.79999914	134.76970000
141.83999914	131.17470000
141.87999914	123.99060000
141.91999914	115.00600000
141.95999914	106.01520000
141.99999914	93.44157000
142.03999914	82.65633000
142.07999914	70.07660000
142.11999914	55.70238000
142.15999914	43.12265000
142.19999914	28.74844000
142.23999914	14.37422000
142.27999914	-1.79448800
142.31999914	-7.18405700
142.35999913	-14.37422000
142.39999913	-26.95395000
142.43999913	-37.73308000
142.47999913	-44.92325000
142.51999913	-52.10730000
142.55999913	-57.50298000
142.59999913	-64.68703000
142.63999913	-70.07660000
142.67999913	-75.47227000
142.71999913	-82.65633000
142.75999913	-89.84650000
142.79999913	-93.44157000
142.83999913	-100.62560000
142.87999913	-107.81580000
142.91999913	-113.20540000
142.95999913	-118.59490000
142.99999913	-122.19000000
143.03999913	-125.78510000
143.07999913	-127.57960000
143.11999913	-127.57960000
143.15999913	-125.78510000
143.19999913	-122.19000000
143.23999913	-116.80040000
143.27999913	-109.61030000
143.31999913	-100.62560000
143.35999913	-89.84650000
143.39999913	-79.06125000
143.43999913	-66.48762000
143.47999913	-52.10730000
143.51999913	-39.52757000
143.55999913	-25.15336000
143.59999913	-10.77914000
143.63999913	1.79448800
143.67999913	14.37422000
143.71999913	25.15336000
143.75999913	35.93859000
143.79999913	44.92325000
143.83999913	53.90789000
143.87999913	61.09195000
143.91999913	68.28211000
143.95999913	73.67168000
143.99999912	80.86184000
144.03999912	88.04590000
144.07999912	95.23605000
144.11999912	104.22070000
144.15999912	111.41090000
144.19999912	118.59490000
144.23999912	125.78510000
144.27999912	131.17470000
144.31999912	134.76970000
144.35999912	136.56420000
144.39999912	138.36480000
144.43999912	136.56420000
144.47999912	132.97520000
144.51999912	125.78510000
144.55999912	118.59490000
144.59999912	107.81580000
144.63999912	97.03055000
144.67999912	84.45692000
144.71999912	71.87719000
144.75999912	57.50298000
144.79999912	43.12265000
144.83999912	30.54292000
144.87999912	17.96930000
144.91999912	5.38956800
144.95999912	-7.18405700
144.99999912	-16.16870000
145.03999912	-26.95395000
145.07999912	-35.93859000
145.11999912	-43.12265000
145.15999912	-50.31281000
145.19999912	-57.50298000
145.23999912	-64.68703000
145.27999912	-68.28211000
145.31999912	-75.47227000
145.35999912	-80.86184000
145.39999912	-88.04590000
145.43999912	-93.44157000
145.47999912	-100.62560000
145.51999912	-107.81580000
145.55999912	-111.41090000
145.59999912	-116.80040000
145.63999911	-122.19000000
145.67999911	-123.99060000
145.71999911	-127.57960000
145.75999911	-127.57960000
145.79999911	-125.78510000
145.83999911	-123.99060000
145.87999911	-118.59490000
145.91999911	-111.41090000
145.95999911	-102.42620000
145.99999911	-93.44157000
146.03999911	-80.86184000
146.07999911	-68.28211000
146.11999911	-55.70238000
146.15999911	-43.12265000
146.19999911	-28.74844000
146.23999911	-14.37422000
146.27999911	-1.79448800
146.31999911	10.77914000
146.35999911	23.35887000
146.39999911	34.13800000
146.43999911	43.12265000
146.47999911	52.10730000
146.51999911	59.29746000
146.55999911	68.28211000
146.59999911	73.67168000
146.63999911	79.06125000
146.67999911	86.25141000
146.71999911	95.23605000
146.75999911	102.42620000
146.79999911	109.61030000
146.83999911	115.00600000
146.87999911	123.99060000
146.91999911	129.38020000
146.95999911	132.97520000
146.99999911	136.56420000
147.03999911	136.56420000
147.07999911	136.56420000
147.11999911	132.97520000
147.15999911	129.38020000
147.19999911	118.59490000
147.23999911	104.22070000
147.27999910	100.62560000
147.31999910	93.44157000
147.35999910	75.47227000
147.39999910	59.29746000
147.43999910	44.92325000
147.47999910	35.93859000
147.51999910	21.55827000
147.55999910	7.18405700
147.59999910	-3.58897700
147.63999910	-12.57363000
147.67999910	-23.35887000
147.71999910	-34.13800000
147.75999910	-41.32816000
147.79999910	-48.51222000
147.83999910	-57.50298000
147.87999910	-62.89254000
147.91999910	-68.28211000
147.95999910	-73.67168000
147.99999910	-80.86184000
148.03999910	-86.25141000
148.07999910	-91.64098000
148.11999910	-98.83114000
148.15999910	-104.22070000
148.19999910	-109.61030000
148.23999910	-109.61030000
148.27999910	-106.01520000
148.31999910	-102.42620000
148.35999910	-104.22070000
148.39999910	-109.61030000
148.43999910	-120.39550000
148.47999910	-129.38020000
148.51999910	-132.97520000
148.55999910	-140.15930000
148.59999910	-140.15930000
148.63999910	-132.97520000
148.67999910	-113.20540000
148.71999910	-88.04590000
148.75999910	-66.48762000
148.79999910	-44.92325000
148.83999910	-25.15336000
148.87999910	-7.18405700
148.91999909	10.77914000
148.95999909	21.55827000
148.99999909	28.74844000
149.03999909	39.52757000
149.07999909	50.31281000
149.11999909	61.09195000
149.15999909	68.28211000
149.19999909	71.87719000
149.23999909	77.26676000
149.27999909	82.65633000
149.31999909	89.84650000
149.35999909	97.03055000
149.39999909	104.22070000
149.43999909	107.81580000
149.47999909	115.00600000
149.51999909	118.59490000
149.55999909	120.39550000
149.59999909	120.39550000
149.63999909	122.19000000
149.67999909	123.99060000
149.71999909	125.78510000
149.75999909	127.57960000
149.79999909	127.57960000
149.83999909	123.99060000
149.87999909	118.59490000
149.91999909	111.41090000
149.95999909	100.62560000
149.99999909	84.45692000
150.03999909	68.28211000
150.07999909	53.90789000
150.11999909	37.73308000
150.15999909	23.35887000
150.19999909	10.77914000
150.23999909	0.00000000
150.27999909	-8.98464900
150.31999909	-17.96930000
150.35999909	-28.74844000
150.39999909	-37.73308000
150.43999909	-50.31281000
150.47999909	-59.29746000
150.51999909	-66.48762000
150.55999908	-75.47227000
150.59999908	-80.86184000
150.63999908	-86.25141000
150.67999908	-89.84650000
150.71999908	-93.44157000
150.75999908	-97.03055000
150.79999908	-102.42620000
150.83999908	-107.81580000
150.87999908	-111.41090000
150.91999908	-116.80040000
150.95999908	-120.39550000
150.99999908	-123.99060000
151.03999908	-123.99060000
151.07999908	-123.99060000
151.11999908	-122.19000000
151.15999908	-118.59490000
151.19999908	-113.20540000
151.23999908	-106.01520000
151.27999908	-98.83114000
151.31999908	-88.04590000
151.35999908	-75.47227000
151.39999908	-62.89254000
151.43999908	-50.31281000
151.47999908	-35.93859000
151.51999908	-23.35887000
151.55999908	-10.77914000
151.59999908	0.00000000
151.63999908	12.57363000
151.67999908	25.15336000
151.71999908	35.93859000
151.75999908	46.71774000
151.79999908	57.50298000
151.83999908	66.48762000
151.87999908	75.47227000
151.91999908	80.86184000
151.95999908	88.04590000
151.99999908	93.44157000
152.03999908	100.62560000
152.07999908	104.22070000
152.11999908	109.61030000
152.15999908	120.39550000
152.19999908	129.38020000
152.23999907	131.17470000
152.27999907	136.56420000
152.31999907	134.76970000
152.35999907	136.56420000
152.39999907	132.97520000
152.43999907	127.57960000
152.47999907	122.19000000
152.51999907	113.20540000
152.55999907	102.42620000
152.59999907	91.64098000
152.63999907	79.06125000
152.67999907	66.48762000
152.71999907	53.90789000
152.75999907	41.32816000
152.79999907	28.74844000
152.83999907	14.37422000
152.87999907	3.58897700
152.91999907	-8.98464900
152.95999907	-17.96930000
152.99999907	-26.95395000
153.03999907	-35.93859000
153.07999907	-44.92325000
153.11999907	-52.10730000
153.15999907	-59.29746000
153.19999907	-64.68703000
153.23999907	-71.87719000
153.27999907	-79.06125000
153.31999907	-84.45692000
153.35999907	-89.84650000
153.39999907	-95.23605000
153.43999907	-102.42620000
153.47999907	-109.61030000
153.51999907	-115.00600000
153.55999907	-120.39550000
153.59999907	-123.99060000
153.63999907	-125.78510000
153.67999907	-127.57960000
153.71999907	-127.57960000
153.75999907	-125.78510000
153.79999907	-122.19000000
153.83999907	-115.00600000
153.87999906	-107.81580000
153.91999906	-98.83114000
153.95999906	-88.04590000
153.99999906	-75.47227000
154.03999906	-64.68703000
154.07999906	-52.10730000
154.11999906	-37.73308000
154.15999906	-23.35887000
154.19999906	-8.98464900
154.23999906	1.79448800
154.27999906	14.37422000
154.31999906	25.15336000
154.35999906	35.93859000
154.39999906	44.92325000
154.43999906	53.90789000
154.47999906	61.09195000
154.51999906	68.28211000
154.55999906	73.67168000
154.59999906	80.86184000
154.63999906	88.04590000
154.67999906	95.23605000
154.71999906	104.22070000
154.75999906	111.41090000
154.79999906	120.39550000
154.83999906	125.78510000
154.87999906	131.17470000
154.91999906	136.56420000
154.95999906	136.56420000
154.99999906	138.36480000
155.03999906	136.56420000
155.07999906	131.17470000
155.11999906	125.78510000
155.15999906	116.80040000
155.19999906	107.81580000
155.23999906	95.23605000
155.27999906	82.65633000
155.31999906	70.07660000
155.35999906	55.70238000
155.39999906	43.12265000
155.43999906	28.74844000
155.47999906	16.16870000
155.51999905	3.58897700
155.55999905	-8.98464900
155.59999905	-17.96930000
155.63999905	-26.95395000
155.67999905	-35.93859000
155.71999905	-43.12265000
155.75999905	-50.31281000
155.79999905	-55.70238000
155.83999905	-61.09195000
155.87999905	-68.28211000
155.91999905	-73.67168000
155.95999905	-80.86184000
155.99999905	-86.25141000
156.03999905	-93.44157000
156.07999905	-100.62560000
156.11999905	-107.81580000
156.15999905	-111.41090000
156.19999905	-116.80040000
156.23999905	-122.19000000
156.27999905	-125.78510000
156.31999905	-127.57960000
156.35999905	-129.38020000
156.39999905	-127.57960000
156.43999905	-123.99060000
156.47999905	-118.59490000
156.51999905	-111.41090000
156.55999905	-102.42620000
156.59999905	-93.44157000
156.63999905	-80.86184000
156.67999905	-68.28211000
156.71999905	-53.90789000
156.75999905	-39.52757000
156.79999905	-25.15336000
156.83999905	-12.57363000
156.87999905	0.00000000
156.91999905	12.57363000
156.95999905	25.15336000
156.99999905	37.73308000
157.03999905	35.93859000
157.07999905	50.31281000
157.11999905	64.68703000
157.15999904	71.87719000
157.19999904	71.87719000
157.23999904	77.26676000
157.27999904	86.25141000
157.31999904	95.23605000
157.35999904	100.62560000
157.39999904	107.81580000
157.43999904	115.00600000
157.47999904	123.99060000
157.51999904	127.57960000
157.55999904	132.97520000
157.59999904	136.56420000
157.63999904	136.56420000
157.67999904	136.56420000
157.71999904	132.97520000
157.75999904	127.57960000
157.79999904	118.59490000
157.83999904	109.61030000
157.87999904	100.62560000
157.91999904	88.04590000
157.95999904	73.67168000
157.99999904	61.09195000
158.03999904	46.71774000
158.07999904	32.34352000
158.11999904	19.76379000
158.15999904	7.18405700
158.19999904	-5.38956800
158.23999904	-14.37422000
158.27999904	-25.15336000
158.31999904	-34.13800000
158.35999904	-43.12265000
158.39999904	-50.31281000
158.43999904	-55.70238000
158.47999904	-62.89254000
158.51999904	-68.28211000
158.55999904	-75.47227000
158.59999904	-80.86184000
158.63999904	-84.45692000
158.67999904	-93.44157000
158.71999904	-100.62560000
158.75999904	-104.22070000
158.79999903	-109.61030000
158.83999903	-115.00600000
158.87999903	-120.39550000
158.91999903	-123.99060000
158.95999903	-125.78510000
158.99999903	-127.57960000
159.03999903	-127.57960000
159.07999903	-123.99060000
159.11999903	-120.39550000
159.15999903	-113.20540000
159.19999903	-104.22070000
159.23999903	-95.23605000
159.27999903	-84.45692000
159.31999903	-71.87719000
159.35999903	-59.29746000
159.39999903	-44.92325000
159.43999903	-30.54292000
159.47999903	-16.16870000
159.51999903	-3.58897700
159.55999903	8.98464900
159.59999903	21.55827000
159.63999903	32.34352000
159.67999903	41.32816000
159.71999903	50.31281000
159.75999903	57.50298000
159.79999903	66.48762000
159.83999903	71.87719000
159.87999903	79.06125000
159.91999903	84.45692000
159.95999903	93.44157000
159.99999903	100.62560000
160.03999903	107.81580000
160.07999903	113.20540000
160.11999903	122.19000000
160.15999903	127.57960000
160.19999903	131.17470000
160.23999903	134.76970000
160.27999903	136.56420000
160.31999903	136.56420000
160.35999903	132.97520000
160.39999903	127.57960000
160.43999902	122.19000000
160.47999902	111.41090000
160.51999902	102.42620000
160.55999902	89.84650000
160.59999902	77.26676000
160.63999902	64.68703000
160.67999902	50.31281000
160.71999902	35.93859000
160.75999902	21.55827000
160.79999902	8.98464900
160.83999902	-1.79448800
160.87999902	-12.57363000
160.91999902	-23.35887000
160.95999902	-32.34352000
160.99999902	-41.32816000
161.03999902	-48.51222000
161.07999902	-55.70238000
161.11999902	-61.09195000
161.15999902	-66.48762000
161.19999902	-73.67168000
161.23999902	-80.86184000
161.27999902	-86.25141000
161.31999902	-91.64098000
161.35999902	-97.03055000
161.39999902	-104.22070000
161.43999902	-109.61030000
161.47999902	-115.00600000
161.51999902	-118.59490000
161.55999902	-123.99060000
161.59999902	-125.78510000
161.63999902	-127.57960000
161.67999902	-127.57960000
161.71999902	-123.99060000
161.75999902	-120.39550000
161.79999902	-115.00600000
161.83999902	-107.81580000
161.87999902	-97.03055000
161.91999902	-89.84650000
161.95999902	-77.26676000
161.99999902	-61.09195000
162.03999902	-44.92325000
162.07999901	-34.13800000
162.11999901	-21.55827000
162.15999901	-7.18405700
162.19999901	7.18405700
162.23999901	17.96930000
162.27999901	28.74844000
162.31999901	37.73308000
162.35999901	48.51222000
162.39999901	57.50298000
162.43999901	64.68703000
162.47999901	71.87719000
162.51999901	77.26676000
162.55999901	84.45692000
162.59999901	91.64098000
162.63999901	100.62560000
162.67999901	107.81580000
162.71999901	113.20540000
162.75999901	120.39550000
162.79999901	125.78510000
162.83999901	129.38020000
162.87999901	134.76970000
162.91999901	136.56420000
162.95999901	136.56420000
162.99999901	134.76970000
163.03999901	129.38020000
163.07999901	122.19000000
163.11999901	115.00600000
163.15999901	106.01520000
163.19999901	93.44157000
163.23999901	80.86184000
163.27999901	68.28211000
163.31999901	53.90789000
163.35999901	39.52757000
163.39999901	26.95395000
163.43999901	14.37422000
163.47999901	1.79448800
163.51999901	-10.77914000
163.55999901	-21.55827000
163.59999901	-30.54292000
163.63999901	-39.52757000
163.67999901	-46.71774000
163.71999900	-53.90789000
163.75999900	-59.29746000
163.79999900	-66.48762000
163.83999900	-71.87719000
163.87999900	-79.06125000
163.91999900	-84.45692000
163.95999900	-89.84650000
163.99999900	-97.03055000
164.03999900	-102.42620000
164.07999900	-107.81580000
164.11999900	-113.20540000
164.15999900	-118.59490000
164.19999900	-122.19000000
164.23999900	-123.99060000
164.27999900	-125.78510000
164.31999900	-127.57960000
164.35999900	-123.99060000
164.39999900	-122.19000000
164.43999900	-116.80040000
164.47999900	-109.61030000
164.51999900	-100.62560000
164.55999900	-89.84650000
164.59999900	-79.06125000
164.63999900	-64.68703000
164.67999900	-52.10730000
164.71999900	-37.73308000
164.75999900	-25.15336000
164.79999900	-10.77914000
164.83999900	1.79448800
164.87999900	14.37422000
164.91999900	26.95395000
164.95999900	35.93859000
164.99999900	44.92325000
165.03999900	55.70238000
165.07999900	62.89254000
165.11999900	70.07660000
165.15999900	75.47227000
165.19999900	82.65633000
165.23999900	89.84650000
165.27999900	97.03055000
165.31999900	104.22070000
165.35999900	113.20540000
165.39999899	118.59490000
165.43999899	123.99060000
165.47999899	129.38020000
165.51999899	132.97520000
165.55999899	134.76970000
165.59999899	136.56420000
165.63999899	132.97520000
165.67999899	129.38020000
165.71999899	123.99060000
165.75999899	115.00600000
165.79999899	106.01520000
165.83999899	95.23605000
165.87999899	82.65633000
165.91999899	70.07660000
165.95999899	57.50298000
165.99999899	43.12265000
166.03999899	28.74844000
166.07999899	16.16870000
166.11999899	5.38956800
166.15999899	-7.18405700
166.19999899	-16.16870000
166.23999899	-26.95395000
166.27999899	-35.93859000
166.31999899	-43.12265000
166.35999899	-52.10730000
166.39999899	-59.29746000
166.43999899	-64.68703000
166.47999899	-70.07660000
166.51999899	-77.26676000
166.55999899	-82.65633000
166.59999899	-89.84650000
166.63999899	-95.23605000
166.67999899	-102.42620000
166.71999899	-107.81580000
166.75999899	-113.20540000
166.79999899	-118.59490000
166.83999899	-120.39550000
166.87999899	-127.57960000
166.91999899	-132.97520000
166.95999899	-123.99060000
166.99999899	-120.39550000
167.03999898	-122.19000000
167.07999898	-118.59490000
167.11999898	-113.20540000
167.15999898	-100.62560000
167.19999898	-89.84650000
167.23999898	-80.86184000
167.27999898	-68.28211000
167.31999898	-53.90789000
167.35999898	-41.32816000
167.39999898	-28.74844000
167.43999898	-14.37422000
167.47999898	0.00000000
167.51999898	10.77914000
167.55999898	21.55827000
167.59999898	34.13800000
167.63999898	43.12265000
167.67999898	50.31281000
167.71999898	59.29746000
167.75999898	68.28211000
167.79999898	73.67168000
167.83999898	79.06125000
167.87999898	88.04590000
167.91999898	97.03055000
167.95999898	104.22070000
167.99999898	111.41090000
168.03999898	118.59490000
168.07999898	125.78510000
168.11999898	131.17470000
168.15999898	134.76970000
168.19999898	136.56420000
168.23999898	138.36480000
168.27999898	136.56420000
168.31999898	132.97520000
168.35999898	125.78510000
168.39999898	118.59490000
168.43999898	109.61030000
168.47999898	98.83114000
168.51999898	84.45692000
168.55999898	71.87719000
168.59999898	59.29746000
168.63999898	46.71774000
168.67999897	30.54292000
168.71999897	17.96930000
168.75999897	5.38956800
168.79999897	-5.38956800
168.83999897	-14.37422000
168.87999897	-25.15336000
168.91999897	-34.13800000
168.95999897	-41.32816000
168.99999897	-50.31281000
169.03999897	-57.50298000
169.07999897	-62.89254000
169.11999897	-68.28211000
169.15999897	-73.67168000
169.19999897	-80.86184000
169.23999897	-88.04590000
169.27999897	-93.44157000
169.31999897	-100.62560000
169.35999897	-107.81580000
169.39999897	-113.20540000
169.43999897	-116.80040000
169.47999897	-122.19000000
169.51999897	-125.78510000
169.55999897	-127.57960000
169.59999897	-129.38020000
169.63999897	-127.57960000
169.67999897	-123.99060000
169.71999897	-120.39550000
169.75999897	-113.20540000
169.79999897	-106.01520000
169.83999897	-93.44157000
169.87999897	-82.65633000
169.91999897	-70.07660000
169.95999897	-57.50298000
169.99999897	-43.12265000
170.03999897	-28.74844000
170.07999897	-14.37422000
170.11999897	-1.79448800
170.15999897	8.98464900
170.19999897	21.55827000
170.23999897	32.34352000
170.27999897	41.32816000
170.31999896	50.31281000
170.35999896	57.50298000
170.39999896	64.68703000
170.43999896	71.87719000
170.47999896	79.06125000
170.51999896	84.45692000
170.55999896	91.64098000
170.59999896	100.62560000
170.63999896	104.22070000
170.67999896	98.83114000
170.71999896	86.25141000
170.75999896	100.62560000
170.79999896	127.57960000
170.83999896	140.15930000
170.87999896	141.95990000
170.91999896	150.94450000
170.95999896	172.50890000
170.99999896	177.89850000
171.03999896	159.92920000
171.07999896	129.38020000
171.11999896	106.01520000
171.15999896	91.64098000
171.19999896	79.06125000
171.23999896	53.90789000
171.27999896	26.95395000
171.31999896	14.37422000
171.35999896	14.37422000
171.39999896	7.18405700
171.43999896	-10.77914000
171.47999896	-28.74844000
171.51999896	-35.93859000
171.55999896	-37.73308000
171.59999896	-43.12265000
171.63999896	-52.10730000
171.67999896	-62.89254000
171.71999896	-68.28211000
171.75999896	-68.28211000
171.79999896	-71.87719000
171.83999896	-79.06125000
171.87999896	-84.45692000
171.91999896	-86.25141000
171.95999895	-86.25141000
171.99999895	-88.04590000
172.03999895	-93.44157000
172.07999895	-102.42620000
172.11999895	-113.20540000
172.15999895	-120.39550000
172.19999895	-125.78510000
172.23999895	-134.76970000
172.27999895	-140.15930000
172.31999895	-138.36480000
172.35999895	-131.17470000
172.39999895	-120.39550000
172.43999895	-109.61030000
172.47999895	-98.83114000
172.51999895	-86.25141000
172.55999895	-71.87719000
172.59999895	-59.29746000
172.63999895	-48.51222000
172.67999895	-37.73308000
172.71999895	-23.35887000
172.75999895	-7.18405700
172.79999895	7.18405700
172.83999895	21.55827000
172.87999895	35.93859000
172.91999895	48.51222000
172.95999895	57.50298000
172.99999895	64.68703000
173.03999895	71.87719000
173.07999895	73.67168000
173.11999895	77.26676000
173.15999895	82.65633000
173.19999895	88.04590000
173.23999895	97.03055000
173.27999895	102.42620000
173.31999895	111.41090000
173.35999895	118.59490000
173.39999895	122.19000000
173.43999895	127.57960000
173.47999895	131.17470000
173.51999895	134.76970000
173.55999895	134.76970000
173.59999894	134.76970000
173.63999894	129.38020000
173.67999894	123.99060000
173.71999894	115.00600000
173.75999894	106.01520000
173.79999894	93.44157000
173.83999894	79.06125000
173.87999894	68.28211000
173.91999894	53.90789000
173.95999894	43.12265000
173.99999894	28.74844000
174.03999894	16.16870000
174.07999894	3.58897700
174.11999894	-8.98464900
174.15999894	-21.55827000
174.19999894	-34.13800000
174.23999894	-43.12265000
174.27999894	-50.31281000
174.31999894	-57.50298000
174.35999894	-62.89254000
174.39999894	-68.28211000
174.43999894	-73.67168000
174.47999894	-79.06125000
174.51999894	-84.45692000
174.55999894	-89.84650000
174.59999894	-95.23605000
174.63999894	-102.42620000
174.67999894	-107.81580000
174.71999894	-115.00600000
174.75999894	-118.59490000
174.79999894	-122.19000000
174.83999894	-123.99060000
174.87999894	-123.99060000
174.91999894	-123.99060000
174.95999894	-123.99060000
174.99999894	-120.39550000
175.03999894	-115.00600000
175.07999894	-107.81580000
175.11999894	-100.62560000
175.15999894	-89.84650000
175.19999894	-77.26676000
175.23999893	-64.68703000
175.27999893	-52.10730000
175.31999893	-39.52757000
175.35999893	-25.15336000
175.39999893	-10.77914000
175.43999893	1.79448800
175.47999893	14.37422000
175.51999893	26.95395000
175.55999893	37.73308000
175.59999893	46.71774000
175.63999893	55.70238000
175.67999893	64.68703000
175.71999893	71.87719000
175.75999893	77.26676000
175.79999893	84.45692000
175.83999893	91.64098000
175.87999893	98.83114000
175.91999893	106.01520000
175.95999893	113.20540000
175.99999893	120.39550000
176.03999893	127.57960000
176.07999893	131.17470000
176.11999893	132.97520000
176.15999893	136.56420000
176.19999893	136.56420000
176.23999893	132.97520000
176.27999893	129.38020000
176.31999893	122.19000000
176.35999893	115.00600000
176.39999893	104.22070000
176.43999893	93.44157000
176.47999893	80.86184000
176.51999893	70.07660000
176.55999893	55.70238000
176.59999893	43.12265000
176.63999893	30.54292000
176.67999893	12.57363000
176.71999893	0.00000000
176.75999893	-7.18405700
176.79999893	-14.37422000
176.83999893	-28.74844000
176.87999893	-35.93859000
176.91999892	-44.92325000
176.95999892	-50.31281000
176.99999892	-57.50298000
177.03999892	-64.68703000
177.07999892	-70.07660000
177.11999892	-77.26676000
177.15999892	-84.45692000
177.19999892	-89.84650000
177.23999892	-95.23605000
177.27999892	-102.42620000
177.31999892	-109.61030000
177.35999892	-115.00600000
177.39999892	-118.59490000
177.43999892	-123.99060000
177.47999892	-125.78510000
177.51999892	-127.57960000
177.55999892	-127.57960000
177.59999892	-125.78510000
177.63999892	-122.19000000
177.67999892	-116.80040000
177.71999892	-109.61030000
177.75999892	-100.62560000
177.79999892	-89.84650000
177.83999892	-79.06125000
177.87999892	-64.68703000
177.91999892	-52.10730000
177.95999892	-37.73308000
177.99999892	-25.15336000
178.03999892	-10.77914000
178.07999892	0.00000000
178.11999892	12.57363000
178.15999892	23.35887000
178.19999892	34.13800000
178.23999892	43.12265000
178.27999892	52.10730000
178.31999892	59.29746000
178.35999892	66.48762000
178.39999892	73.67168000
178.43999892	80.86184000
178.47999892	88.04590000
178.51999892	95.23605000
178.55999891	104.22070000
178.59999891	111.41090000
178.63999891	118.59490000
178.67999891	125.78510000
178.71999891	129.38020000
178.75999891	134.76970000
178.79999891	136.56420000
178.83999891	138.36480000
178.87999891	136.56420000
178.91999891	132.97520000
178.95999891	127.57960000
178.99999891	118.59490000
179.03999891	107.81580000
179.07999891	98.83114000
179.11999891	84.45692000
179.15999891	71.87719000
179.19999891	57.50298000
179.23999891	43.12265000
179.27999891	30.54292000
179.31999891	17.96930000
179.35999891	5.38956800
179.39999891	-5.38956800
179.43999891	-16.16870000
179.47999891	-25.15336000
179.51999891	-34.13800000
179.55999891	-43.12265000
179.59999891	-50.31281000
179.63999891	-55.70238000
179.67999891	-62.89254000
179.71999891	-68.28211000
179.75999891	-73.67168000
179.79999891	-80.86184000
179.83999891	-86.25141000
179.87999891	-93.44157000
179.91999891	-100.62560000
179.95999891	-106.01520000
179.99999891	-111.41090000
180.03999891	-116.80040000
180.07999891	-122.19000000
180.11999891	-125.78510000
180.15999891	-127.57960000
180.19999890	-129.38020000
180.23999890	-127.57960000
180.27999890	-123.99060000
180.31999890	-120.39550000
180.35999890	-113.20540000
180.39999890	-104.22070000
180.43999890	-93.44157000
180.47999890	-80.86184000
180.51999890	-68.28211000
180.55999890	-55.70238000
180.59999890	-41.32816000
180.63999890	-28.74844000
180.67999890	-14.37422000
180.71999890	-1.79448800
180.75999890	10.77914000
180.79999890	21.55827000
180.83999890	32.34352000
180.87999890	43.12265000
180.91999890	50.31281000
180.95999890	57.50298000
180.99999890	66.48762000
181.03999890	73.67168000
181.07999890	79.06125000
181.11999890	86.25141000
181.15999890	93.44157000
181.19999890	100.62560000
181.23999890	109.61030000
181.27999890	115.00600000
181.31999890	122.19000000
181.35999890	129.38020000
181.39999890	132.97520000
181.43999890	136.56420000
181.47999890	138.36480000
181.51999890	136.56420000
181.55999890	134.76970000
181.59999890	131.17470000
181.63999890	115.00600000
181.67999890	107.81580000
181.71999890	104.22070000
181.75999890	93.44157000
181.79999890	75.47227000
181.83999889	61.09195000
181.87999889	46.71774000
181.91999889	35.93859000
181.95999889	21.55827000
181.99999889	7.18405700
182.03999889	-1.79448800
182.07999889	-12.57363000
182.11999889	-25.15336000
182.15999889	-32.34352000
182.19999889	-41.32816000
182.23999889	-48.51222000
182.27999889	-57.50298000
182.31999889	-61.09195000
182.35999889	-66.48762000
182.39999889	-73.67168000
182.43999889	-80.86184000
182.47999889	-86.25141000
182.51999889	-91.64098000
182.55999889	-98.83114000
182.59999889	-104.22070000
182.63999889	-109.61030000
182.67999889	-115.00600000
182.71999889	-120.39550000
182.75999889	-122.19000000
182.79999889	-127.57960000
182.83999889	-127.57960000
182.87999889	-125.78510000
182.91999889	-123.99060000
182.95999889	-120.39550000
182.99999889	-115.00600000
183.03999889	-107.81580000
183.07999889	-95.23605000
183.11999889	-86.25141000
183.15999889	-71.87719000
183.19999889	-59.29746000
183.23999889	-46.71774000
183.27999889	-32.34352000
183.31999889	-17.96930000
183.35999889	-5.38956800
183.39999889	7.18405700
183.43999889	19.76379000
183.47999888	30.54292000
183.51999888	41.32816000
183.55999888	50.31281000
183.59999888	57.50298000
183.63999888	66.48762000
183.67999888	71.87719000
183.71999888	79.06125000
183.75999888	84.45692000
183.79999888	93.44157000
183.83999888	100.62560000
183.87999888	107.81580000
183.91999888	115.00600000
183.95999888	122.19000000
183.99999888	127.57960000
184.03999888	131.17470000
184.07999888	134.76970000
184.11999888	136.56420000
184.15999888	136.56420000
184.19999888	132.97520000
184.23999888	129.38020000
184.27999888	120.39550000
184.31999888	113.20540000
184.35999888	104.22070000
184.39999888	91.64098000
184.43999888	79.06125000
184.47999888	64.68703000
184.51999888	52.10730000
184.55999888	37.73308000
184.59999888	25.15336000
184.63999888	12.57363000
184.67999888	0.00000000
184.71999888	-10.77914000
184.75999888	-21.55827000
184.79999888	-28.74844000
184.83999888	-37.73308000
184.87999888	-46.71774000
184.91999888	-53.90789000
184.95999888	-59.29746000
184.99999888	-66.48762000
185.03999888	-71.87719000
185.07999888	-79.06125000
185.11999887	-86.25141000
185.15999887	-89.84650000
185.19999887	-97.03055000
185.23999887	-102.42620000
185.27999887	-109.61030000
185.31999887	-115.00600000
185.35999887	-118.59490000
185.39999887	-122.19000000
185.43999887	-125.78510000
185.47999887	-125.78510000
185.51999887	-127.57960000
185.55999887	-123.99060000
185.59999887	-120.39550000
185.63999887	-115.00600000
185.67999887	-107.81580000
185.71999887	-98.83114000
185.75999887	-88.04590000
185.79999887	-75.47227000
185.83999887	-62.89254000
185.87999887	-50.31281000
185.91999887	-35.93859000
185.95999887	-21.55827000
185.99999887	-8.98464900
186.03999887	3.58897700
186.07999887	16.16870000
186.11999887	26.95395000
186.15999887	37.73308000
186.19999887	46.71774000
186.23999887	55.70238000
186.27999887	62.89254000
186.31999887	71.87719000
186.35999887	77.26676000
186.39999887	84.45692000
186.43999887	89.84650000
186.47999887	98.83114000
186.51999887	100.62560000
186.55999887	109.61030000
186.59999887	120.39550000
186.63999887	129.38020000
186.67999887	129.38020000
186.71999887	132.97520000
186.75999886	136.56420000
186.79999886	136.56420000
186.83999886	132.97520000
186.87999886	129.38020000
186.91999886	123.99060000
186.95999886	115.00600000
186.99999886	106.01520000
187.03999886	93.44157000
187.07999886	82.65633000
187.11999886	70.07660000
187.15999886	55.70238000
187.19999886	41.32816000
187.23999886	28.74844000
187.27999886	14.37422000
187.31999886	3.58897700
187.35999886	-8.98464900
187.39999886	-19.76379000
187.43999886	-28.74844000
187.47999886	-37.73308000
187.51999886	-44.92325000
187.55999886	-52.10730000
187.59999886	-59.29746000
187.63999886	-64.68703000
187.67999886	-71.87719000
187.71999886	-75.47227000
187.75999886	-80.86184000
187.79999886	-88.04590000
187.83999886	-93.44157000
187.87999886	-100.62560000
187.91999886	-106.01520000
187.95999886	-113.20540000
187.99999886	-116.80040000
188.03999886	-122.19000000
188.07999886	-123.99060000
188.11999886	-125.78510000
188.15999886	-127.57960000
188.19999886	-125.78510000
188.23999886	-122.19000000
188.27999886	-116.80040000
188.31999886	-109.61030000
188.35999886	-100.62560000
188.39999886	-91.64098000
188.43999885	-79.06125000
188.47999885	-66.48762000
188.51999885	-52.10730000
188.55999885	-39.52757000
188.59999885	-25.15336000
188.63999885	-10.77914000
188.67999885	1.79448800
188.71999885	14.37422000
188.75999885	26.95395000
188.79999885	35.93859000
188.83999885	46.71774000
188.87999885	53.90789000
188.91999885	61.09195000
188.95999885	70.07660000
188.99999885	75.47227000
189.03999885	80.86184000
189.07999885	88.04590000
189.11999885	97.03055000
189.15999885	104.22070000
189.19999885	109.61030000
189.23999885	116.80040000
189.27999885	123.99060000
189.31999885	129.38020000
189.35999885	132.97520000
189.39999885	136.56420000
189.43999885	136.56420000
189.47999885	134.76970000
189.51999885	131.17470000
189.55999885	125.78510000
189.59999885	118.59490000
189.63999885	107.81580000
189.67999885	97.03055000
189.71999885	86.25141000
189.75999885	71.87719000
189.79999885	57.50298000
189.83999885	44.92325000
189.87999885	30.54292000
189.91999885	17.96930000
189.95999885	5.38956800
189.99999885	-7.18405700
190.03999885	-16.16870000
190.07999884	-26.95395000
190.11999884	-35.93859000
190.15999884	-43.12265000
190.19999884	-50.31281000
190.23999884	-57.50298000
190.27999884	-64.68703000
190.31999884	-68.28211000
190.35999884	-75.47227000
190.39999884	-80.86184000
190.43999884	-88.04590000
190.47999884	-93.44157000
190.51999884	-100.62560000
190.55999884	-104.22070000
190.59999884	-111.41090000
190.63999884	-115.00600000
190.67999884	-120.39550000
190.71999884	-123.99060000
190.75999884	-125.78510000
190.79999884	-127.57960000
190.83999884	-123.99060000
190.87999884	-122.19000000
190.91999884	-118.59490000
190.95999884	-111.41090000
190.99999884	-102.42620000
191.03999884	-93.44157000
191.07999884	-80.86184000
191.11999884	-68.28211000
191.15999884	-55.70238000
191.19999884	-43.12265000
191.23999884	-28.74844000
191.27999884	-14.37422000
191.31999884	-1.79448800
191.35999884	10.77914000
191.39999884	23.35887000
191.43999884	35.93859000
191.47999884	35.93859000
191.51999884	48.51222000
191.55999884	62.89254000
191.59999884	71.87719000
191.63999884	71.87719000
191.67999884	79.06125000
191.71999883	86.25141000
191.75999883	98.83114000
191.79999883	102.42620000
191.83999883	109.61030000
191.87999883	116.80040000
191.91999883	123.99060000
191.95999883	129.38020000
191.99999883	132.97520000
192.03999883	136.56420000
192.07999883	136.56420000
192.11999883	134.76970000
192.15999883	132.97520000
192.19999883	127.57960000
192.23999883	120.39550000
192.27999883	109.61030000
192.31999883	100.62560000
192.35999883	88.04590000
192.39999883	73.67168000
192.43999883	61.09195000
192.47999883	46.71774000
192.51999883	34.13800000
192.55999883	21.55827000
192.59999883	7.18405700
192.63999883	-3.58897700
192.67999883	-14.37422000
192.71999883	-23.35887000
192.75999883	-32.34352000
192.79999883	-41.32816000
192.83999883	-48.51222000
192.87999883	-55.70238000
192.91999883	-61.09195000
192.95999883	-68.28211000
192.99999883	-73.67168000
193.03999883	-80.86184000
193.07999883	-86.25141000
193.11999883	-93.44157000
193.15999883	-100.62560000
193.19999883	-106.01520000
193.23999883	-111.41090000
193.27999883	-116.80040000
193.31999883	-120.39550000
193.35999882	-123.99060000
193.39999882	-125.78510000
193.43999882	-127.57960000
193.47999882	-125.78510000
193.51999882	-123.99060000
193.55999882	-118.59490000
193.59999882	-113.20540000
193.63999882	-104.22070000
193.67999882	-95.23605000
193.71999882	-82.65633000
193.75999882	-71.87719000
193.79999882	-57.50298000
193.83999882	-44.92325000
193.87999882	-30.54292000
193.91999882	-17.96930000
193.95999882	-3.58897700
193.99999882	7.18405700
194.03999882	19.76379000
194.07999882	30.54292000
194.11999882	41.32816000
194.15999882	50.31281000
194.19999882	57.50298000
194.23999882	64.68703000
194.27999882	71.87719000
194.31999882	77.26676000
194.35999882	84.45692000
194.39999882	93.44157000
194.43999882	100.62560000
194.47999882	107.81580000
194.51999882	115.00600000
194.55999882	122.19000000
194.59999882	127.57960000
194.63999882	132.97520000
194.67999882	136.56420000
194.71999882	136.56420000
194.75999882	136.56420000
194.79999882	132.97520000
194.83999882	129.38020000
194.87999882	122.19000000
194.91999882	111.41090000
194.95999882	102.42620000
194.99999881	89.84650000
195.03999881	77.26676000
195.07999881	64.68703000
195.11999881	50.31281000
195.15999881	35.93859000
195.19999881	21.55827000
195.23999881	10.77914000
195.27999881	-1.79448800
195.31999881	-12.57363000
195.35999881	-21.55827000
195.39999881	-30.54292000
195.43999881	-39.52757000
195.47999881	-46.71774000
195.51999881	-53.90789000
195.55999881	-59.29746000
195.59999881	-64.68703000
195.63999881	-71.87719000
195.67999881	-79.06125000
195.71999881	-84.45692000
195.75999881	-89.84650000
195.79999881	-97.03055000
195.83999881	-102.42620000
195.87999881	-109.61030000
195.91999881	-115.00600000
195.95999881	-118.59490000
195.99999881	-123.99060000
196.03999881	-125.78510000
196.07999881	-127.57960000
196.11999881	-127.57960000
196.15999881	-123.99060000
196.19999881	-120.39550000
196.23999881	-115.00600000
196.27999881	-107.81580000
196.31999881	-97.03055000
196.35999881	-88.04590000
196.39999881	-79.06125000
196.43999881	-61.09195000
196.47999881	-44.92325000
196.51999881	-34.13800000
196.55999881	-19.76379000
196.59999881	-8.98464900
196.63999880	5.38956800
196.67999880	17.96930000
196.71999880	28.74844000
196.75999880	37.73308000
196.79999880	48.51222000
196.83999880	55.70238000
196.87999880	62.89254000
196.91999880	70.07660000
196.95999880	77.26676000
196.99999880	84.45692000
197.03999880	91.64098000
197.07999880	98.83114000
197.11999880	106.01520000
197.15999880	113.20540000
197.19999880	120.39550000
197.23999880	127.57960000
197.27999880	131.17470000
197.31999880	134.76970000
197.35999880	136.56420000
197.39999880	136.56420000
197.43999880	134.76970000
197.47999880	129.38020000
197.51999880	123.99060000
197.55999880	115.00600000
197.59999880	106.01520000
197.63999880	93.44157000
197.67999880	82.65633000
197.71999880	68.28211000
197.75999880	55.70238000
197.79999880	41.32816000
197.83999880	26.95395000
197.87999880	14.37422000
197.91999880	3.58897700
197.95999880	-8.98464900
197.99999880	-21.55827000
198.03999880	-30.54292000
198.07999880	-37.73308000
198.11999880	-44.92325000
198.15999880	-53.90789000
198.19999880	-59.29746000
198.23999880	-64.68703000
198.27999879	-71.87719000
198.31999879	-79.06125000
198.35999879	-82.65633000
198.39999879	-89.84650000
198.43999879	-95.23605000
198.47999879	-100.62560000
198.51999879	-107.81580000
198.55999879	-113.20540000
198.59999879	-116.80040000
198.63999879	-122.19000000
198.67999879	-123.99060000
198.71999879	-127.57960000
198.75999879	-127.57960000
198.79999879	-125.78510000
198.83999879	-122.19000000
198.87999879	-116.80040000
198.91999879	-109.61030000
198.95999879	-100.62560000
198.99999879	-89.84650000
199.03999879	-79.06125000
199.07999879	-64.68703000
199.11999879	-52.10730000
199.15999879	-37.73308000
199.19999879	-25.15336000
199.23999879	-10.77914000
199.27999879	1.79448800
199.31999879	14.37422000
199.35999879	25.15336000
199.39999879	35.93859000
199.43999879	46.71774000
199.47999879	55.70238000
199.51999879	61.09195000
199.55999879	70.07660000
199.59999879	75.47227000
199.63999879	82.65633000
199.67999879	89.84650000
199.71999879	97.03055000
199.75999879	104.22070000
199.79999879	111.41090000
199.83999879	118.59490000
199.87999879	123.99060000
199.91999878	129.38020000
199.95999878	134.76970000
199.99999878	136.56420000
200.03999878	136.56420000
200.07999878	134.76970000
200.11999878	131.17470000
