Time	Channel A
(us)	(mV)

0.00000000	5.38956800
0.04000000	-3.58897700
0.08000000	-16.16870000
0.12000000	-30.54292000
0.16000000	-43.12265000
0.20000000	-57.50298000
0.24000000	-73.67168000
0.28000000	-86.25141000
0.32000000	-93.44157000
0.36000000	-100.62560000
0.40000000	-100.62560000
0.44000000	-97.03055000
0.48000000	-84.45692000
0.52000000	-77.26676000
0.56000000	-71.87719000
0.60000000	-66.48762000
0.64000000	-62.89254000
0.68000000	-61.09195000
0.72000000	-61.09195000
0.76000000	-61.09195000
0.80000000	-61.09195000
0.83999999	-62.89254000
0.87999999	-64.68703000
0.91999999	-64.68703000
0.95999999	-64.68703000
0.99999999	-61.09195000
1.03999999	-55.70238000
1.07999999	-52.10730000
1.11999999	-41.32816000
1.15999999	-34.13800000
1.19999999	-26.95395000
1.23999999	-17.96930000
1.27999999	-10.77914000
1.31999999	0.00000000
1.35999999	5.38956800
1.39999999	16.16870000
1.43999999	28.74844000
1.47999999	41.32816000
1.51999999	50.31281000
1.55999999	61.09195000
1.59999999	77.26676000
1.63999999	91.64098000
1.67999999	106.01520000
1.71999999	120.39550000
1.75999999	129.38020000
1.79999999	138.36480000
1.83999999	136.56420000
1.87999999	134.76970000
1.91999999	127.57960000
1.95999999	118.59490000
1.99999999	106.01520000
2.03999999	93.44157000
2.07999999	80.86184000
2.11999999	68.28211000
2.15999999	55.70238000
2.19999999	43.12265000
2.23999999	32.34352000
2.27999999	21.55827000
2.31999999	10.77914000
2.35999999	1.79448800
2.39999999	-8.98464900
2.43999999	-21.55827000
2.47999998	-34.13800000
2.51999998	-48.51222000
2.55999998	-64.68703000
2.59999998	-77.26676000
2.63999998	-88.04590000
2.67999998	-95.23605000
2.71999998	-98.83114000
2.75999998	-93.44157000
2.79999998	-86.25141000
2.83999998	-80.86184000
2.87999998	-75.47227000
2.91999998	-71.87719000
2.95999998	-66.48762000
2.99999998	-64.68703000
3.03999998	-62.89254000
3.07999998	-61.09195000
3.11999998	-61.09195000
3.15999998	-61.09195000
3.19999998	-62.89254000
3.23999998	-64.68703000
3.27999998	-64.68703000
3.31999998	-62.89254000
3.35999998	-59.29746000
3.39999998	-52.10730000
3.43999998	-43.12265000
3.47999998	-37.73308000
3.51999998	-28.74844000
3.55999998	-21.55827000
3.59999998	-14.37422000
3.63999998	-5.38956800
3.67999998	3.58897700
3.71999998	14.37422000
3.75999998	25.15336000
3.79999998	35.93859000
3.83999998	46.71774000
3.87999998	57.50298000
3.91999998	71.87719000
3.95999998	82.65633000
3.99999998	98.83114000
4.03999998	111.41090000
4.07999998	122.19000000
4.11999997	131.17470000
4.15999997	134.76970000
4.19999997	132.97520000
4.23999997	129.38020000
4.27999997	120.39550000
4.31999997	109.61030000
4.35999997	98.83114000
4.39999997	86.25141000
4.43999997	73.67168000
4.47999997	57.50298000
4.51999997	48.51222000
4.55999997	35.93859000
4.59999997	28.74844000
4.63999997	17.96930000
4.67999997	7.18405700
4.71999997	-5.38956800
4.75999997	-16.16870000
4.79999997	-28.74844000
4.83999997	-41.32816000
4.87999997	-57.50298000
4.91999997	-71.87719000
4.95999997	-84.45692000
4.99999997	-91.64098000
5.03999997	-95.23605000
5.07999997	-97.03055000
5.11999997	-89.84650000
5.15999997	-86.25141000
5.19999997	-79.06125000
5.23999997	-75.47227000
5.27999997	-70.07660000
5.31999997	-66.48762000
5.35999997	-64.68703000
5.39999997	-62.89254000
5.43999997	-62.89254000
5.47999997	-61.09195000
5.51999997	-62.89254000
5.55999997	-64.68703000
5.59999997	-64.68703000
5.63999997	-62.89254000
5.67999997	-59.29746000
5.71999997	-53.90789000
5.75999996	-46.71774000
5.79999996	-37.73308000
5.83999996	-26.95395000
5.87999996	-23.35887000
5.91999996	-19.76379000
5.95999996	-10.77914000
5.99999996	0.00000000
6.03999996	10.77914000
6.07999996	21.55827000
6.11999996	28.74844000
6.15999996	41.32816000
6.19999996	52.10730000
6.23999996	64.68703000
6.27999996	77.26676000
6.31999996	89.84650000
6.35999996	106.01520000
6.39999996	120.39550000
6.43999996	129.38020000
6.47999996	134.76970000
6.51999996	134.76970000
6.55999996	131.17470000
6.59999996	123.99060000
6.63999996	115.00600000
6.67999996	104.22070000
6.71999996	91.64098000
6.75999996	79.06125000
6.79999996	66.48762000
6.83999996	53.90789000
6.87999996	41.32816000
6.91999996	30.54292000
6.95999996	21.55827000
6.99999996	10.77914000
7.03999996	0.00000000
7.07999996	-10.77914000
7.11999996	-23.35887000
7.15999996	-37.73308000
7.19999996	-52.10730000
7.23999996	-64.68703000
7.27999996	-79.06125000
7.31999996	-91.64098000
7.35999996	-98.83114000
7.39999996	-100.62560000
7.43999995	-97.03055000
7.47999995	-88.04590000
7.51999995	-80.86184000
7.55999995	-73.67168000
7.59999995	-68.28211000
7.63999995	-64.68703000
7.67999995	-62.89254000
7.71999995	-61.09195000
7.75999995	-61.09195000
7.79999995	-61.09195000
7.83999995	-62.89254000
7.87999995	-62.89254000
7.91999995	-64.68703000
7.95999995	-64.68703000
7.99999995	-61.09195000
8.03999995	-57.50298000
8.07999995	-52.10730000
8.11999995	-43.12265000
8.15999995	-35.93859000
8.19999995	-28.74844000
8.23999995	-19.76379000
8.27999995	-10.77914000
8.31999995	-3.58897700
8.35999995	5.38956800
8.39999995	16.16870000
8.43999995	26.95395000
8.47999995	37.73308000
8.51999995	48.51222000
8.55999995	59.29746000
8.59999995	71.87719000
8.63999995	86.25141000
8.67999995	100.62560000
8.71999995	115.00600000
8.75999995	127.57960000
8.79999995	132.97520000
8.83999995	134.76970000
8.87999995	132.97520000
8.91999995	127.57960000
8.95999995	118.59490000
8.99999995	109.61030000
9.03999995	95.23605000
9.07999994	84.45692000
9.11999994	71.87719000
9.15999994	57.50298000
9.19999994	46.71774000
9.23999994	35.93859000
9.27999994	23.35887000
9.31999994	14.37422000
9.35999994	3.58897700
9.39999994	-1.79448800
9.43999994	-23.35887000
9.47999994	-41.32816000
9.51999994	-43.12265000
9.55999994	-53.90789000
9.59999994	-73.67168000
9.63999994	-88.04590000
9.67999994	-98.83114000
9.71999994	-95.23605000
9.75999994	-98.83114000
9.79999994	-97.03055000
9.83999994	-91.64098000
9.87999994	-86.25141000
9.91999994	-82.65633000
9.95999994	-75.47227000
9.99999994	-70.07660000
10.03999994	-68.28211000
10.07999994	-68.28211000
10.11999994	-64.68703000
10.15999994	-64.68703000
10.19999994	-64.68703000
10.23999994	-64.68703000
10.27999994	-64.68703000
10.31999994	-61.09195000
10.35999994	-57.50298000
10.39999994	-53.90789000
10.43999994	-46.71774000
10.47999994	-39.52757000
10.51999994	-30.54292000
10.55999994	-21.55827000
10.59999994	-14.37422000
10.63999994	-5.38956800
10.67999994	3.58897700
10.71999993	12.57363000
10.75999993	25.15336000
10.79999993	30.54292000
10.83999993	41.32816000
10.87999993	50.31281000
10.91999993	59.29746000
10.95999993	71.87719000
10.99999993	84.45692000
11.03999993	100.62560000
11.07999993	115.00600000
11.11999993	122.19000000
11.15999993	129.38020000
11.19999993	131.17470000
11.23999993	129.38020000
11.27999993	122.19000000
11.31999993	113.20540000
11.35999993	104.22070000
11.39999993	93.44157000
11.43999993	79.06125000
11.47999993	66.48762000
11.51999993	53.90789000
11.55999993	41.32816000
11.59999993	28.74844000
11.63999993	19.76379000
11.67999993	8.98464900
11.71999993	-1.79448800
11.75999993	-12.57363000
11.79999993	-25.15336000
11.83999993	-37.73308000
11.87999993	-52.10730000
11.91999993	-64.68703000
11.95999993	-79.06125000
11.99999993	-88.04590000
12.03999993	-95.23605000
12.07999993	-97.03055000
12.11999993	-95.23605000
12.15999993	-89.84650000
12.19999993	-84.45692000
12.23999993	-73.67168000
12.27999993	-68.28211000
12.31999993	-64.68703000
12.35999992	-61.09195000
12.39999992	-57.50298000
12.43999992	-57.50298000
12.47999992	-57.50298000
12.51999992	-57.50298000
12.55999992	-59.29746000
12.59999992	-61.09195000
12.63999992	-61.09195000
12.67999992	-59.29746000
12.71999992	-57.50298000
12.75999992	-52.10730000
12.79999992	-46.71774000
12.83999992	-37.73308000
12.87999992	-30.54292000
12.91999992	-23.35887000
12.95999992	-16.16870000
12.99999992	-7.18405700
13.03999992	0.00000000
13.07999992	12.57363000
13.11999992	21.55827000
13.15999992	34.13800000
13.19999992	46.71774000
13.23999992	57.50298000
13.27999992	71.87719000
13.31999992	86.25141000
13.35999992	104.22070000
13.39999992	118.59490000
13.43999992	132.97520000
13.47999992	140.15930000
13.51999992	141.95990000
13.55999992	141.95990000
13.59999992	134.76970000
13.63999992	123.99060000
13.67999992	113.20540000
13.71999992	100.62560000
13.75999992	86.25141000
13.79999992	73.67168000
13.83999992	59.29746000
13.87999992	46.71774000
13.91999992	34.13800000
13.95999992	23.35887000
13.99999991	12.57363000
14.03999991	3.58897700
14.07999991	-7.18405700
14.11999991	-17.96930000
14.15999991	-30.54292000
14.19999991	-44.92325000
14.23999991	-59.29746000
14.27999991	-73.67168000
14.31999991	-89.84650000
14.35999991	-95.23605000
14.39999991	-102.42620000
14.43999991	-100.62560000
14.47999991	-100.62560000
14.51999991	-93.44157000
14.55999991	-88.04590000
14.59999991	-79.06125000
14.63999991	-71.87719000
14.67999991	-62.89254000
14.71999991	-57.50298000
14.75999991	-53.90789000
14.79999991	-55.70238000
14.83999991	-57.50298000
14.87999991	-59.29746000
14.91999991	-59.29746000
14.95999991	-62.89254000
14.99999991	-61.09195000
15.03999991	-57.50298000
15.07999991	-55.70238000
15.11999991	-50.31281000
15.15999991	-43.12265000
15.19999991	-35.93859000
15.23999991	-26.95395000
15.27999991	-17.96930000
15.31999991	-8.98464900
15.35999991	1.79448800
15.39999991	12.57363000
15.43999991	21.55827000
15.47999991	34.13800000
15.51999991	43.12265000
15.55999991	55.70238000
15.59999991	70.07660000
15.63999990	84.45692000
15.67999990	93.44157000
15.71999990	104.22070000
15.75999990	118.59490000
15.79999990	129.38020000
15.83999990	136.56420000
15.87999990	134.76970000
15.91999990	129.38020000
15.95999990	123.99060000
15.99999990	115.00600000
16.03999990	102.42620000
16.07999990	89.84650000
16.11999990	75.47227000
16.15999990	64.68703000
16.19999990	52.10730000
16.23999990	41.32816000
16.27999990	28.74844000
16.31999990	16.16870000
16.35999990	7.18405700
16.39999990	-1.79448800
16.43999990	-12.57363000
16.47999990	-28.74844000
16.51999990	-37.73308000
16.55999990	-52.10730000
16.59999990	-66.48762000
16.63999990	-80.86184000
16.67999990	-91.64098000
16.71999990	-98.83114000
16.75999990	-100.62560000
16.79999990	-104.22070000
16.83999990	-93.44157000
16.87999990	-86.25141000
16.91999990	-73.67168000
16.95999990	-70.07660000
16.99999990	-64.68703000
17.03999990	-61.09195000
17.07999990	-59.29746000
17.11999990	-59.29746000
17.15999990	-59.29746000
17.19999990	-61.09195000
17.23999990	-62.89254000
17.27999989	-62.89254000
17.31999989	-62.89254000
17.35999989	-62.89254000
17.39999989	-59.29746000
17.43999989	-53.90789000
17.47999989	-46.71774000
17.51999989	-37.73308000
17.55999989	-30.54292000
17.59999989	-23.35887000
17.63999989	-14.37422000
17.67999989	-5.38956800
17.71999989	3.58897700
17.75999989	14.37422000
17.79999989	23.35887000
17.83999989	34.13800000
17.87999989	44.92325000
17.91999989	55.70238000
17.95999989	70.07660000
17.99999989	82.65633000
18.03999989	98.83114000
18.07999989	113.20540000
18.11999989	127.57960000
18.15999989	134.76970000
18.19999989	136.56420000
18.23999989	134.76970000
18.27999989	129.38020000
18.31999989	120.39550000
18.35999989	109.61030000
18.39999989	98.83114000
18.43999989	86.25141000
18.47999989	71.87719000
18.51999989	57.50298000
18.55999989	46.71774000
18.59999989	34.13800000
18.63999989	25.15336000
18.67999989	14.37422000
18.71999989	5.38956800
18.75999989	-7.18405700
18.79999989	-17.96930000
18.83999989	-30.54292000
18.87999989	-44.92325000
18.91999989	-59.29746000
18.95999988	-71.87719000
18.99999988	-86.25141000
19.03999988	-95.23605000
19.07999988	-100.62560000
19.11999988	-100.62560000
19.15999988	-97.03055000
19.19999988	-86.25141000
19.23999988	-75.47227000
19.27999988	-79.06125000
19.31999988	-79.06125000
19.35999988	-61.09195000
19.39999988	-53.90789000
19.43999988	-61.09195000
19.47999988	-64.68703000
19.51999988	-64.68703000
19.55999988	-61.09195000
19.59999988	-61.09195000
19.63999988	-64.68703000
19.67999988	-59.29746000
19.71999988	-57.50298000
19.75999988	-55.70238000
19.79999988	-50.31281000
19.83999988	-39.52757000
19.87999988	-34.13800000
19.91999988	-25.15336000
19.95999988	-17.96930000
19.99999988	-8.98464900
20.03999988	-1.79448800
20.07999988	7.18405700
20.11999988	17.96930000
20.15999988	28.74844000
20.19999988	39.52757000
20.23999988	50.31281000
20.27999988	62.89254000
20.31999988	77.26676000
20.35999988	89.84650000
20.39999988	107.81580000
20.43999988	120.39550000
20.47999988	131.17470000
20.51999988	136.56420000
20.55999988	138.36480000
20.59999987	131.17470000
20.63999987	123.99060000
20.67999987	115.00600000
20.71999987	104.22070000
20.75999987	89.84650000
20.79999987	79.06125000
20.83999987	64.68703000
20.87999987	53.90789000
20.91999987	41.32816000
20.95999987	28.74844000
20.99999987	17.96930000
21.03999987	8.98464900
21.07999987	-1.79448800
21.11999987	-14.37422000
21.15999987	-28.74844000
21.19999987	-43.12265000
21.23999987	-61.09195000
21.27999987	-89.84650000
21.31999987	-115.00600000
21.35999987	-115.00600000
21.39999987	-106.01520000
21.43999987	-100.62560000
21.47999987	-89.84650000
21.51999987	-71.87719000
21.55999987	-48.51222000
21.59999987	-32.34352000
21.63999987	-34.13800000
21.67999987	-44.92325000
21.71999987	-55.70238000
21.75999987	-55.70238000
21.79999987	-62.89254000
21.83999987	-73.67168000
21.87999987	-82.65633000
21.91999987	-82.65633000
21.95999987	-73.67168000
21.99999987	-68.28211000
22.03999987	-71.87719000
22.07999987	-71.87719000
22.11999987	-64.68703000
22.15999987	-53.90789000
22.19999987	-44.92325000
22.23999986	-39.52757000
22.27999986	-39.52757000
22.31999986	-53.90789000
22.35999986	-37.73308000
22.39999986	-7.18405700
22.43999986	21.55827000
22.47999986	32.34352000
22.51999986	52.10730000
22.55999986	91.64098000
22.59999986	122.19000000
22.63999986	129.38020000
22.67999986	116.80040000
22.71999986	109.61030000
22.75999986	115.00600000
22.79999986	122.19000000
22.83999986	116.80040000
22.87999986	102.42620000
22.91999986	100.62560000
22.95999986	107.81580000
22.99999986	111.41090000
23.03999986	98.83114000
23.07999986	80.86184000
23.11999986	71.87719000
23.15999986	68.28211000
23.19999986	55.70238000
23.23999986	41.32816000
23.27999986	26.95395000
23.31999986	17.96930000
23.35999986	14.37422000
23.39999986	8.98464900
23.43999986	1.79448800
23.47999986	-7.18405700
23.51999986	-16.16870000
23.55999986	-25.15336000
23.59999986	-37.73308000
23.63999986	-55.70238000
23.67999986	-73.67168000
23.71999986	-93.44157000
23.75999986	-100.62560000
23.79999986	-106.01520000
23.83999986	-102.42620000
23.87999985	-104.22070000
23.91999985	-95.23605000
23.95999985	-86.25141000
23.99999985	-73.67168000
24.03999985	-68.28211000
24.07999985	-64.68703000
24.11999985	-59.29746000
24.15999985	-61.09195000
24.19999985	-57.50298000
24.23999985	-61.09195000
24.27999985	-59.29746000
24.31999985	-61.09195000
24.35999985	-61.09195000
24.39999985	-57.50298000
24.43999985	-52.10730000
24.47999985	-41.32816000
24.51999985	-32.34352000
24.55999985	-23.35887000
24.59999985	-14.37422000
24.63999985	-10.77914000
24.67999985	-7.18405700
24.71999985	-3.58897700
24.75999985	0.00000000
24.79999985	7.18405700
24.83999985	17.96930000
24.87999985	30.54292000
24.91999985	43.12265000
24.95999985	57.50298000
24.99999985	75.47227000
25.03999985	91.64098000
25.07999985	109.61030000
25.11999985	127.57960000
25.15999985	136.56420000
25.19999985	143.75440000
25.23999985	143.75440000
25.27999985	138.36480000
25.31999985	129.38020000
25.35999985	118.59490000
25.39999985	107.81580000
25.43999985	95.23605000
25.47999985	80.86184000
25.51999984	70.07660000
25.55999984	53.90789000
25.59999984	44.92325000
25.63999984	28.74844000
25.67999984	19.76379000
25.71999984	7.18405700
25.75999984	-3.58897700
25.79999984	-16.16870000
25.83999984	-28.74844000
25.87999984	-39.52757000
25.91999984	-53.90789000
25.95999984	-71.87719000
25.99999984	-84.45692000
26.03999984	-89.84650000
26.07999984	-95.23605000
26.11999984	-98.83114000
26.15999984	-98.83114000
26.19999984	-93.44157000
26.23999984	-86.25141000
26.27999984	-80.86184000
26.31999984	-77.26676000
26.35999984	-71.87719000
26.39999984	-68.28211000
26.43999984	-64.68703000
26.47999984	-62.89254000
26.51999984	-64.68703000
26.55999984	-64.68703000
26.59999984	-66.48762000
26.63999984	-66.48762000
26.67999984	-66.48762000
26.71999984	-64.68703000
26.75999984	-61.09195000
26.79999984	-55.70238000
26.83999984	-48.51222000
26.87999984	-39.52757000
26.91999984	-30.54292000
26.95999984	-21.55827000
26.99999984	-10.77914000
27.03999984	-1.79448800
27.07999984	7.18405700
27.11999984	16.16870000
27.15999983	26.95395000
27.19999983	35.93859000
27.23999983	44.92325000
27.27999983	55.70238000
27.31999983	66.48762000
27.35999983	77.26676000
27.39999983	91.64098000
27.43999983	104.22070000
27.47999983	115.00600000
27.51999983	125.78510000
27.55999983	129.38020000
27.59999983	129.38020000
27.63999983	125.78510000
27.67999983	118.59490000
27.71999983	107.81580000
27.75999983	98.83114000
27.79999983	86.25141000
27.83999983	73.67168000
27.87999983	61.09195000
27.91999983	50.31281000
27.95999983	39.52757000
27.99999983	28.74844000
28.03999983	17.96930000
28.07999983	8.98464900
28.11999983	-1.79448800
28.15999983	-12.57363000
28.19999983	-25.15336000
28.23999983	-39.52757000
28.27999983	-53.90789000
28.31999983	-68.28211000
28.35999983	-82.65633000
28.39999983	-93.44157000
28.43999983	-102.42620000
28.47999983	-104.22070000
28.51999983	-102.42620000
28.55999983	-98.83114000
28.59999983	-89.84650000
28.63999983	-82.65633000
28.67999983	-75.47227000
28.71999983	-71.87719000
28.75999983	-68.28211000
28.79999982	-66.48762000
28.83999982	-66.48762000
28.87999982	-64.68703000
28.91999982	-66.48762000
28.95999982	-66.48762000
28.99999982	-66.48762000
29.03999982	-66.48762000
29.07999982	-61.09195000
29.11999982	-61.09195000
29.15999982	-64.68703000
29.19999982	-50.31281000
29.23999982	-32.34352000
29.27999982	-28.74844000
29.31999982	-25.15336000
29.35999982	-17.96930000
29.39999982	-7.18405700
29.43999982	3.58897700
29.47999982	10.77914000
29.51999982	21.55827000
29.55999982	32.34352000
29.59999982	43.12265000
29.63999982	50.31281000
29.67999982	64.68703000
29.71999982	77.26676000
29.75999982	91.64098000
29.79999982	102.42620000
29.83999982	118.59490000
29.87999982	129.38020000
29.91999982	131.17470000
29.95999982	131.17470000
29.99999982	127.57960000
30.03999982	120.39550000
30.07999982	109.61030000
30.11999982	100.62560000
30.15999982	88.04590000
30.19999982	73.67168000
30.23999982	61.09195000
30.27999982	48.51222000
30.31999982	37.73308000
30.35999982	26.95395000
30.39999982	16.16870000
30.43999982	5.38956800
30.47999981	-3.58897700
30.51999981	-14.37422000
30.55999981	-28.74844000
30.59999981	-41.32816000
30.63999981	-57.50298000
30.67999981	-71.87719000
30.71999981	-82.65633000
30.75999981	-91.64098000
30.79999981	-100.62560000
30.83999981	-102.42620000
30.87999981	-97.03055000
30.91999981	-93.44157000
30.95999981	-86.25141000
30.99999981	-80.86184000
31.03999981	-73.67168000
31.07999981	-70.07660000
31.11999981	-68.28211000
31.15999981	-66.48762000
31.19999981	-62.89254000
31.23999981	-64.68703000
31.27999981	-66.48762000
31.31999981	-66.48762000
31.35999981	-66.48762000
31.39999981	-64.68703000
31.43999981	-64.68703000
31.47999981	-59.29746000
31.51999981	-53.90789000
31.55999981	-44.92325000
31.59999981	-37.73308000
31.63999981	-28.74844000
31.67999981	-21.55827000
31.71999981	-12.57363000
31.75999981	-5.38956800
31.79999981	3.58897700
31.83999981	14.37422000
31.87999981	23.35887000
31.91999981	32.34352000
31.95999981	44.92325000
31.99999981	53.90789000
32.03999981	66.48762000
32.07999981	80.86184000
32.11999980	95.23605000
32.15999980	109.61030000
32.19999980	122.19000000
32.23999980	129.38020000
32.27999980	132.97520000
32.31999980	132.97520000
32.35999980	127.57960000
32.39999980	120.39550000
32.43999980	109.61030000
32.47999980	98.83114000
32.51999980	86.25141000
32.55999980	73.67168000
32.59999980	59.29746000
32.63999980	48.51222000
32.67999980	35.93859000
32.71999980	25.15336000
32.75999980	16.16870000
32.79999980	5.38956800
32.83999980	-5.38956800
32.87999980	-16.16870000
32.91999980	-28.74844000
32.95999980	-43.12265000
32.99999980	-59.29746000
33.03999980	-71.87719000
33.07999980	-86.25141000
33.11999980	-95.23605000
33.15999980	-102.42620000
33.19999980	-104.22070000
33.23999980	-106.01520000
33.27999980	-98.83114000
33.31999980	-91.64098000
33.35999980	-82.65633000
33.39999980	-77.26676000
33.43999980	-71.87719000
33.47999980	-68.28211000
33.51999980	-64.68703000
33.55999980	-64.68703000
33.59999980	-64.68703000
33.63999980	-64.68703000
33.67999980	-64.68703000
33.71999980	-66.48762000
33.75999979	-64.68703000
33.79999979	-62.89254000
33.83999979	-59.29746000
33.87999979	-53.90789000
33.91999979	-44.92325000
33.95999979	-37.73308000
33.99999979	-30.54292000
34.03999979	-23.35887000
34.07999979	-12.57363000
34.11999979	-1.79448800
34.15999979	7.18405700
34.19999979	17.96930000
34.23999979	25.15336000
34.27999979	35.93859000
34.31999979	44.92325000
34.35999979	57.50298000
34.39999979	70.07660000
34.43999979	82.65633000
34.47999979	93.44157000
34.51999979	111.41090000
34.55999979	120.39550000
34.59999979	129.38020000
34.63999979	131.17470000
34.67999979	129.38020000
34.71999979	123.99060000
34.75999979	115.00600000
34.79999979	106.01520000
34.83999979	93.44157000
34.87999979	80.86184000
34.91999979	68.28211000
34.95999979	57.50298000
34.99999979	44.92325000
35.03999979	32.34352000
35.07999979	23.35887000
35.11999979	12.57363000
35.15999979	1.79448800
35.19999979	-7.18405700
35.23999979	-19.76379000
35.27999979	-32.34352000
35.31999979	-46.71774000
35.35999979	-61.09195000
35.39999978	-75.47227000
35.43999978	-88.04590000
35.47999978	-98.83114000
35.51999978	-100.62560000
35.55999978	-100.62560000
35.59999978	-93.44157000
35.63999978	-91.64098000
35.67999978	-88.04590000
35.71999978	-80.86184000
35.75999978	-70.07660000
35.79999978	-68.28211000
35.83999978	-64.68703000
35.87999978	-64.68703000
35.91999978	-62.89254000
35.95999978	-62.89254000
35.99999978	-64.68703000
36.03999978	-66.48762000
36.07999978	-66.48762000
36.11999978	-64.68703000
36.15999978	-61.09195000
36.19999978	-57.50298000
36.23999978	-50.31281000
36.27999978	-43.12265000
36.31999978	-35.93859000
36.35999978	-26.95395000
36.39999978	-17.96930000
36.43999978	-10.77914000
36.47999978	-3.58897700
36.51999978	7.18405700
36.55999978	16.16870000
36.59999978	25.15336000
36.63999978	35.93859000
36.67999978	48.51222000
36.71999978	59.29746000
36.75999978	71.87719000
36.79999978	86.25141000
36.83999978	100.62560000
36.87999978	115.00600000
36.91999978	125.78510000
36.95999978	132.97520000
36.99999978	134.76970000
37.03999977	132.97520000
37.07999977	127.57960000
37.11999977	116.80040000
37.15999977	106.01520000
37.19999977	93.44157000
37.23999977	80.86184000
37.27999977	70.07660000
37.31999977	55.70238000
37.35999977	43.12265000
37.39999977	32.34352000
37.43999977	21.55827000
37.47999977	12.57363000
37.51999977	0.00000000
37.55999977	-10.77914000
37.59999977	-21.55827000
37.63999977	-35.93859000
37.67999977	-50.31281000
37.71999977	-64.68703000
37.75999977	-79.06125000
37.79999977	-89.84650000
37.83999977	-98.83114000
37.87999977	-102.42620000
37.91999977	-97.03055000
37.95999977	-91.64098000
37.99999977	-80.86184000
38.03999977	-75.47227000
38.07999977	-71.87719000
38.11999977	-66.48762000
38.15999977	-62.89254000
38.19999977	-61.09195000
38.23999977	-59.29746000
38.27999977	-61.09195000
38.31999977	-61.09195000
38.35999977	-62.89254000
38.39999977	-64.68703000
38.43999977	-64.68703000
38.47999977	-64.68703000
38.51999977	-59.29746000
38.55999977	-53.90789000
38.59999977	-46.71774000
38.63999977	-37.73308000
38.67999976	-30.54292000
38.71999976	-25.15336000
38.75999976	-14.37422000
38.79999976	-7.18405700
38.83999976	1.79448800
38.87999976	12.57363000
38.91999976	23.35887000
38.95999976	34.13800000
38.99999976	34.13800000
39.03999976	50.31281000
39.07999976	75.47227000
39.11999976	88.04590000
39.15999976	95.23605000
39.19999976	109.61030000
39.23999976	125.78510000
39.27999976	136.56420000
39.31999976	138.36480000
39.35999976	138.36480000
39.39999976	132.97520000
39.43999976	125.78510000
39.47999976	113.20540000
39.51999976	102.42620000
39.55999976	89.84650000
39.59999976	73.67168000
39.63999976	61.09195000
39.67999976	50.31281000
39.71999976	39.52757000
39.75999976	28.74844000
39.79999976	17.96930000
39.83999976	7.18405700
39.87999976	-3.58897700
39.91999976	-14.37422000
39.95999976	-28.74844000
39.99999976	-39.52757000
40.03999976	-53.90789000
40.07999976	-70.07660000
40.11999976	-80.86184000
40.15999976	-91.64098000
40.19999976	-97.03055000
40.23999976	-97.03055000
40.27999976	-95.23605000
40.31999975	-89.84650000
40.35999975	-84.45692000
40.39999975	-75.47227000
40.43999975	-71.87719000
40.47999975	-64.68703000
40.51999975	-62.89254000
40.55999975	-62.89254000
40.59999975	-59.29746000
40.63999975	-61.09195000
40.67999975	-64.68703000
40.71999975	-64.68703000
40.75999975	-64.68703000
40.79999975	-62.89254000
40.83999975	-61.09195000
40.87999975	-57.50298000
40.91999975	-50.31281000
40.95999975	-43.12265000
40.99999975	-35.93859000
41.03999975	-26.95395000
41.07999975	-17.96930000
41.11999975	-8.98464900
41.15999975	-1.79448800
41.19999975	8.98464900
41.23999975	17.96930000
41.27999975	28.74844000
41.31999975	39.52757000
41.35999975	50.31281000
41.39999975	61.09195000
41.43999975	73.67168000
41.47999975	86.25141000
41.51999975	100.62560000
41.55999975	115.00600000
41.59999975	127.57960000
41.63999975	132.97520000
41.67999975	136.56420000
41.71999975	134.76970000
41.75999975	129.38020000
41.79999975	120.39550000
41.83999975	109.61030000
41.87999975	98.83114000
41.91999975	86.25141000
41.95999974	71.87719000
41.99999974	59.29746000
42.03999974	46.71774000
42.07999974	34.13800000
42.11999974	25.15336000
42.15999974	12.57363000
42.19999974	3.58897700
42.23999974	-7.18405700
42.27999974	-19.76379000
42.31999974	-32.34352000
42.35999974	-44.92325000
42.39999974	-59.29746000
42.43999974	-73.67168000
42.47999974	-86.25141000
42.51999974	-95.23605000
42.55999974	-100.62560000
42.59999974	-100.62560000
42.63999974	-95.23605000
42.67999974	-88.04590000
42.71999974	-80.86184000
42.75999974	-75.47227000
42.79999974	-68.28211000
42.83999974	-64.68703000
42.87999974	-59.29746000
42.91999974	-57.50298000
42.95999974	-57.50298000
42.99999974	-57.50298000
43.03999974	-59.29746000
43.07999974	-61.09195000
43.11999974	-61.09195000
43.15999974	-61.09195000
43.19999974	-59.29746000
43.23999974	-55.70238000
43.27999974	-50.31281000
43.31999974	-43.12265000
43.35999974	-35.93859000
43.39999974	-26.95395000
43.43999974	-17.96930000
43.47999974	-10.77914000
43.51999974	-1.79448800
43.55999974	7.18405700
43.59999974	17.96930000
43.63999973	28.74844000
43.67999973	41.32816000
43.71999973	53.90789000
43.75999973	64.68703000
43.79999973	80.86184000
43.83999973	91.64098000
43.87999973	109.61030000
43.91999973	123.99060000
43.95999973	136.56420000
43.99999973	143.75440000
44.03999973	143.75440000
44.07999973	136.56420000
44.11999973	129.38020000
44.15999973	116.80040000
44.19999973	107.81580000
44.23999973	93.44157000
44.27999973	79.06125000
44.31999973	66.48762000
44.35999973	53.90789000
44.39999973	39.52757000
44.43999973	28.74844000
44.47999973	17.96930000
44.51999973	7.18405700
44.55999973	-1.79448800
44.59999973	-12.57363000
44.63999973	-23.35887000
44.67999973	-37.73308000
44.71999973	-52.10730000
44.75999973	-64.68703000
44.79999973	-79.06125000
44.83999973	-88.04590000
44.87999973	-95.23605000
44.91999973	-95.23605000
44.95999973	-91.64098000
44.99999973	-86.25141000
45.03999973	-79.06125000
45.07999973	-71.87719000
45.11999973	-66.48762000
45.15999973	-61.09195000
45.19999973	-57.50298000
45.23999973	-55.70238000
45.27999972	-59.29746000
45.31999972	-62.89254000
45.35999972	-62.89254000
45.39999972	-61.09195000
45.43999972	-62.89254000
45.47999972	-64.68703000
45.51999972	-62.89254000
45.55999972	-59.29746000
45.59999972	-50.31281000
45.63999972	-44.92325000
45.67999972	-37.73308000
45.71999972	-28.74844000
45.75999972	-19.76379000
45.79999972	-12.57363000
45.83999972	-3.58897700
45.87999972	5.38956800
45.91999972	16.16870000
45.95999972	26.95395000
45.99999972	37.73308000
46.03999972	50.31281000
46.07999972	61.09195000
46.11999972	73.67168000
46.15999972	88.04590000
46.19999972	102.42620000
46.23999972	116.80040000
46.27999972	129.38020000
46.31999972	138.36480000
46.35999972	140.15930000
46.39999972	138.36480000
46.43999972	131.17470000
46.47999972	122.19000000
46.51999972	111.41090000
46.55999972	100.62560000
46.59999972	86.25141000
46.63999972	73.67168000
46.67999972	61.09195000
46.71999972	48.51222000
46.75999972	35.93859000
46.79999972	26.95395000
46.83999972	16.16870000
46.87999972	7.18405700
46.91999971	-3.58897700
46.95999971	-14.37422000
46.99999971	-26.95395000
47.03999971	-43.12265000
47.07999971	-57.50298000
47.11999971	-70.07660000
47.15999971	-84.45692000
47.19999971	-95.23605000
47.23999971	-102.42620000
47.27999971	-104.22070000
47.31999971	-98.83114000
47.35999971	-93.44157000
47.39999971	-82.65633000
47.43999971	-77.26676000
47.47999971	-68.28211000
47.51999971	-64.68703000
47.55999971	-62.89254000
47.59999971	-61.09195000
47.63999971	-61.09195000
47.67999971	-61.09195000
47.71999971	-62.89254000
47.75999971	-64.68703000
47.79999971	-64.68703000
47.83999971	-64.68703000
47.87999971	-61.09195000
47.91999971	-57.50298000
47.95999971	-52.10730000
47.99999971	-43.12265000
48.03999971	-35.93859000
48.07999971	-25.15336000
48.11999971	-16.16870000
48.15999971	-8.98464900
48.19999971	0.00000000
48.23999971	8.98464900
48.27999971	21.55827000
48.31999971	30.54292000
48.35999971	43.12265000
48.39999971	52.10730000
48.43999971	62.89254000
48.47999971	75.47227000
48.51999971	89.84650000
48.55999970	106.01520000
48.59999970	120.39550000
48.63999970	129.38020000
48.67999970	136.56420000
48.71999970	136.56420000
48.75999970	138.36480000
48.79999970	122.19000000
48.83999970	107.81580000
48.87999970	107.81580000
48.91999970	102.42620000
48.95999970	84.45692000
48.99999970	66.48762000
49.03999970	53.90789000
49.07999970	44.92325000
49.11999970	34.13800000
49.15999970	21.55827000
49.19999970	10.77914000
49.23999970	1.79448800
49.27999970	-7.18405700
49.31999970	-21.55827000
49.35999970	-32.34352000
49.39999970	-48.51222000
49.43999970	-62.89254000
49.47999970	-77.26676000
49.51999970	-86.25141000
49.55999970	-97.03055000
49.59999970	-102.42620000
49.63999970	-102.42620000
49.67999970	-98.83114000
49.71999970	-93.44157000
49.75999970	-86.25141000
49.79999970	-79.06125000
49.83999970	-71.87719000
49.87999970	-66.48762000
49.91999970	-62.89254000
49.95999970	-61.09195000
49.99999970	-61.09195000
50.03999970	-61.09195000
50.07999970	-61.09195000
50.11999970	-62.89254000
50.15999970	-57.50298000
50.19999969	-59.29746000
50.23999969	-57.50298000
50.27999969	-53.90789000
50.31999969	-46.71774000
50.35999969	-43.12265000
50.39999969	-34.13800000
50.43999969	-25.15336000
50.47999969	-16.16870000
50.51999969	-12.57363000
50.55999969	-3.58897700
50.59999969	7.18405700
50.63999969	17.96930000
50.67999969	26.95395000
50.71999969	37.73308000
50.75999969	50.31281000
50.79999969	64.68703000
50.83999969	79.06125000
50.87999969	91.64098000
50.91999969	109.61030000
50.95999969	122.19000000
50.99999969	134.76970000
51.03999969	140.15930000
51.07999969	140.15930000
51.11999969	136.56420000
51.15999969	127.57960000
51.19999969	118.59490000
51.23999969	106.01520000
51.27999969	91.64098000
51.31999969	79.06125000
51.35999969	64.68703000
51.39999969	52.10730000
51.43999969	39.52757000
51.47999969	28.74844000
51.51999969	17.96930000
51.55999969	7.18405700
51.59999969	-1.79448800
51.63999969	-12.57363000
51.67999969	-25.15336000
51.71999969	-37.73308000
51.75999969	-52.10730000
51.79999969	-66.48762000
51.83999968	-80.86184000
51.87999968	-91.64098000
51.91999968	-98.83114000
51.95999968	-102.42620000
51.99999968	-102.42620000
52.03999968	-95.23605000
52.07999968	-89.84650000
52.11999968	-82.65633000
52.15999968	-75.47227000
52.19999968	-70.07660000
52.23999968	-66.48762000
52.27999968	-64.68703000
52.31999968	-62.89254000
52.35999968	-62.89254000
52.39999968	-61.09195000
52.43999968	-62.89254000
52.47999968	-62.89254000
52.51999968	-61.09195000
52.55999968	-59.29746000
52.59999968	-55.70238000
52.63999968	-52.10730000
52.67999968	-44.92325000
52.71999968	-37.73308000
52.75999968	-30.54292000
52.79999968	-23.35887000
52.83999968	-16.16870000
52.87999968	-8.98464900
52.91999968	0.00000000
52.95999968	7.18405700
52.99999968	19.76379000
53.03999968	28.74844000
53.07999968	43.12265000
53.11999968	53.90789000
53.15999968	68.28211000
53.19999968	84.45692000
53.23999968	100.62560000
53.27999968	113.20540000
53.31999968	127.57960000
53.35999968	136.56420000
53.39999968	140.15930000
53.43999968	141.95990000
53.47999967	134.76970000
53.51999967	122.19000000
53.55999967	115.00600000
53.59999967	102.42620000
53.63999967	88.04590000
53.67999967	71.87719000
53.71999967	59.29746000
53.75999967	48.51222000
53.79999967	39.52757000
53.83999967	26.95395000
53.87999967	17.96930000
53.91999967	5.38956800
53.95999967	-3.58897700
53.99999967	-14.37422000
54.03999967	-25.15336000
54.07999967	-39.52757000
54.11999967	-53.90789000
54.15999967	-68.28211000
54.19999967	-80.86184000
54.23999967	-93.44157000
54.27999967	-100.62560000
54.31999967	-102.42620000
54.35999967	-98.83114000
54.39999967	-93.44157000
54.43999967	-80.86184000
54.47999967	-73.67168000
54.51999967	-66.48762000
54.55999967	-64.68703000
54.59999967	-61.09195000
54.63999967	-61.09195000
54.67999967	-61.09195000
54.71999967	-62.89254000
54.75999967	-62.89254000
54.79999967	-64.68703000
54.83999967	-64.68703000
54.87999967	-64.68703000
54.91999967	-64.68703000
54.95999967	-61.09195000
54.99999967	-53.90789000
55.03999967	-43.12265000
55.07999967	-39.52757000
55.11999967	-34.13800000
55.15999966	-25.15336000
55.19999966	-14.37422000
55.23999966	-3.58897700
55.27999966	5.38956800
55.31999966	12.57363000
55.35999966	25.15336000
55.39999966	35.93859000
55.43999966	48.51222000
55.47999966	59.29746000
55.51999966	71.87719000
55.55999966	86.25141000
55.59999966	104.22070000
55.63999966	115.00600000
55.67999966	129.38020000
55.71999966	136.56420000
55.75999966	140.15930000
55.79999966	138.36480000
55.83999966	132.97520000
55.87999966	122.19000000
55.91999966	113.20540000
55.95999966	100.62560000
55.99999966	89.84650000
56.03999966	75.47227000
56.07999966	62.89254000
56.11999966	50.31281000
56.15999966	39.52757000
56.19999966	26.95395000
56.23999966	17.96930000
56.27999966	7.18405700
56.31999966	-3.58897700
56.35999966	-14.37422000
56.39999966	-26.95395000
56.43999966	-41.32816000
56.47999966	-55.70238000
56.51999966	-70.07660000
56.55999966	-84.45692000
56.59999966	-93.44157000
56.63999966	-100.62560000
56.67999966	-100.62560000
56.71999966	-91.64098000
56.75999966	-84.45692000
56.79999965	-73.67168000
56.83999965	-68.28211000
56.87999965	-59.29746000
56.91999965	-57.50298000
56.95999965	-55.70238000
56.99999965	-57.50298000
57.03999965	-57.50298000
57.07999965	-59.29746000
57.11999965	-61.09195000
57.15999965	-62.89254000
57.19999965	-64.68703000
57.23999965	-64.68703000
57.27999965	-62.89254000
57.31999965	-57.50298000
57.35999965	-52.10730000
57.39999965	-43.12265000
57.43999965	-34.13800000
57.47999965	-26.95395000
57.51999965	-17.96930000
57.55999965	-10.77914000
57.59999965	-1.79448800
57.63999965	7.18405700
57.67999965	17.96930000
57.71999965	28.74844000
57.75999965	39.52757000
57.79999965	52.10730000
57.83999965	66.48762000
57.87999965	80.86184000
57.91999965	95.23605000
57.95999965	111.41090000
57.99999965	127.57960000
58.03999965	138.36480000
58.07999965	145.54890000
58.11999965	145.54890000
58.15999965	141.95990000
58.19999965	134.76970000
58.23999965	122.19000000
58.27999965	111.41090000
58.31999965	97.03055000
58.35999965	84.45692000
58.39999965	70.07660000
58.43999964	57.50298000
58.47999964	46.71774000
58.51999964	34.13800000
58.55999964	25.15336000
58.59999964	19.76379000
58.63999964	1.79448800
58.67999964	-16.16870000
58.71999964	-16.16870000
58.75999964	-21.55827000
58.79999964	-43.12265000
58.83999964	-61.09195000
58.87999964	-77.26676000
58.91999964	-84.45692000
58.95999964	-93.44157000
58.99999964	-100.62560000
59.03999964	-100.62560000
59.07999964	-91.64098000
59.11999964	-86.25141000
59.15999964	-79.06125000
59.19999964	-73.67168000
59.23999964	-71.87719000
59.27999964	-77.26676000
59.31999964	-80.86184000
59.35999964	-82.65633000
59.39999964	-84.45692000
59.43999964	-79.06125000
59.47999964	-68.28211000
59.51999964	-53.90789000
59.55999964	-41.32816000
59.59999964	-28.74844000
59.63999964	-17.96930000
59.67999964	-12.57363000
59.71999964	-16.16870000
59.75999964	-23.35887000
59.79999964	-26.95395000
59.83999964	-30.54292000
59.87999964	-26.95395000
59.91999964	-25.15336000
59.95999964	-14.37422000
59.99999964	-1.79448800
60.03999964	7.18405700
60.07999963	23.35887000
60.11999963	35.93859000
60.15999963	46.71774000
60.19999963	59.29746000
60.23999963	75.47227000
60.27999963	91.64098000
60.31999963	106.01520000
60.35999963	116.80040000
60.39999963	129.38020000
60.43999963	138.36480000
60.47999963	140.15930000
60.51999963	140.15930000
60.55999963	136.56420000
60.59999963	131.17470000
60.63999963	122.19000000
60.67999963	107.81580000
60.71999963	93.44157000
60.75999963	75.47227000
60.79999963	57.50298000
60.83999963	41.32816000
60.87999963	26.95395000
60.91999963	14.37422000
60.95999963	0.00000000
60.99999963	-8.98464900
61.03999963	-16.16870000
61.07999963	-25.15336000
61.11999963	-35.93859000
61.15999963	-48.51222000
61.19999963	-61.09195000
61.23999963	-73.67168000
61.27999963	-88.04590000
61.31999963	-97.03055000
61.35999963	-102.42620000
61.39999963	-100.62560000
61.43999963	-95.23605000
61.47999963	-82.65633000
61.51999963	-73.67168000
61.55999963	-64.68703000
61.59999963	-59.29746000
61.63999963	-57.50298000
61.67999963	-55.70238000
61.71999962	-57.50298000
61.75999962	-61.09195000
61.79999962	-64.68703000
61.83999962	-70.07660000
61.87999962	-71.87719000
61.91999962	-71.87719000
61.95999962	-70.07660000
61.99999962	-66.48762000
62.03999962	-61.09195000
62.07999962	-52.10730000
62.11999962	-43.12265000
62.15999962	-34.13800000
62.19999962	-23.35887000
62.23999962	-14.37422000
62.27999962	-5.38956800
62.31999962	1.79448800
62.35999962	12.57363000
62.39999962	21.55827000
62.43999962	32.34352000
62.47999962	43.12265000
62.51999962	53.90789000
62.55999962	68.28211000
62.59999962	79.06125000
62.63999962	95.23605000
62.67999962	111.41090000
62.71999962	123.99060000
62.75999962	131.17470000
62.79999962	136.56420000
62.83999962	134.76970000
62.87999962	131.17470000
62.91999962	122.19000000
62.95999962	115.00600000
62.99999962	102.42620000
63.03999962	91.64098000
63.07999962	80.86184000
63.11999962	68.28211000
63.15999962	57.50298000
63.19999962	46.71774000
63.23999962	35.93859000
63.27999962	25.15336000
63.31999962	14.37422000
63.35999961	3.58897700
63.39999961	-7.18405700
63.43999961	-19.76379000
63.47999961	-34.13800000
63.51999961	-52.10730000
63.55999961	-62.89254000
63.59999961	-79.06125000
63.63999961	-86.25141000
63.67999961	-95.23605000
63.71999961	-98.83114000
63.75999961	-100.62560000
63.79999961	-95.23605000
63.83999961	-88.04590000
63.87999961	-80.86184000
63.91999961	-73.67168000
63.95999961	-68.28211000
63.99999961	-64.68703000
64.03999961	-62.89254000
64.07999961	-61.09195000
64.11999961	-61.09195000
64.15999961	-61.09195000
64.19999961	-61.09195000
64.23999961	-62.89254000
64.27999961	-62.89254000
64.31999961	-61.09195000
64.35999961	-59.29746000
64.39999961	-55.70238000
64.43999961	-50.31281000
64.47999961	-41.32816000
64.51999961	-34.13800000
64.55999961	-25.15336000
64.59999961	-17.96930000
64.63999961	-10.77914000
64.67999961	-1.79448800
64.71999961	8.98464900
64.75999961	23.35887000
64.79999961	30.54292000
64.83999961	41.32816000
64.87999961	50.31281000
64.91999961	64.68703000
64.95999961	80.86184000
64.99999960	93.44157000
65.03999960	109.61030000
65.07999960	123.99060000
65.11999960	134.76970000
65.15999960	140.15930000
65.19999960	140.15930000
65.23999960	134.76970000
65.27999960	127.57960000
65.31999960	118.59490000
65.35999960	107.81580000
65.39999960	93.44157000
65.43999960	79.06125000
65.47999960	68.28211000
65.51999960	55.70238000
65.55999960	43.12265000
65.59999960	32.34352000
65.63999960	21.55827000
65.67999960	12.57363000
65.71999960	1.79448800
65.75999960	-8.98464900
65.79999960	-21.55827000
65.83999960	-34.13800000
65.87999960	-48.51222000
65.91999960	-62.89254000
65.95999960	-77.26676000
65.99999960	-89.84650000
66.03999960	-97.03055000
66.07999960	-102.42620000
66.11999960	-102.42620000
66.15999960	-98.83114000
66.19999960	-93.44157000
66.23999960	-84.45692000
66.27999960	-79.06125000
66.31999960	-71.87719000
66.35999960	-70.07660000
66.39999960	-66.48762000
66.43999960	-64.68703000
66.47999960	-64.68703000
66.51999960	-64.68703000
66.55999960	-66.48762000
66.59999960	-66.48762000
66.63999959	-66.48762000
66.67999959	-64.68703000
66.71999959	-61.09195000
66.75999959	-55.70238000
66.79999959	-50.31281000
66.83999959	-41.32816000
66.87999959	-34.13800000
66.91999959	-25.15336000
66.95999959	-16.16870000
66.99999959	-8.98464900
67.03999959	0.00000000
67.07999959	10.77914000
67.11999959	19.76379000
67.15999959	28.74844000
67.19999959	41.32816000
67.23999959	50.31281000
67.27999959	61.09195000
67.31999959	75.47227000
67.35999959	88.04590000
67.39999959	104.22070000
67.43999959	118.59490000
67.47999959	129.38020000
67.51999959	134.76970000
67.55999959	136.56420000
67.59999959	132.97520000
67.63999959	125.78510000
67.67999959	116.80040000
67.71999959	106.01520000
67.75999959	93.44157000
67.79999959	80.86184000
67.83999959	68.28211000
67.87999959	55.70238000
67.91999959	43.12265000
67.95999959	32.34352000
67.99999959	21.55827000
68.03999959	12.57363000
68.07999959	3.58897700
68.11999959	-7.18405700
68.15999959	-19.76379000
68.19999959	-32.34352000
68.23999959	-46.71774000
68.27999959	-61.09195000
68.31999958	-73.67168000
68.35999958	-86.25141000
68.39999958	-95.23605000
68.43999958	-97.03055000
68.47999958	-100.62560000
68.51999958	-104.22070000
68.55999958	-86.25141000
68.59999958	-71.87719000
68.63999958	-70.07660000
68.67999958	-70.07660000
68.71999958	-68.28211000
68.75999958	-61.09195000
68.79999958	-61.09195000
68.83999958	-64.68703000
68.87999958	-64.68703000
68.91999958	-64.68703000
68.95999958	-66.48762000
68.99999958	-68.28211000
69.03999958	-64.68703000
69.07999958	-62.89254000
69.11999958	-59.29746000
69.15999958	-52.10730000
69.19999958	-43.12265000
69.23999958	-35.93859000
69.27999958	-28.74844000
69.31999958	-21.55827000
69.35999958	-10.77914000
69.39999958	-3.58897700
69.43999958	7.18405700
69.47999958	14.37422000
69.51999958	28.74844000
69.55999958	37.73308000
69.59999958	50.31281000
69.63999958	61.09195000
69.67999958	75.47227000
69.71999958	93.44157000
69.75999958	106.01520000
69.79999958	116.80040000
69.83999958	129.38020000
69.87999958	136.56420000
69.91999958	136.56420000
69.95999957	134.76970000
69.99999957	127.57960000
70.03999957	120.39550000
70.07999957	107.81580000
70.11999957	95.23605000
70.15999957	82.65633000
70.19999957	71.87719000
70.23999957	57.50298000
70.27999957	46.71774000
70.31999957	34.13800000
70.35999957	25.15336000
70.39999957	14.37422000
70.43999957	5.38956800
70.47999957	-5.38956800
70.51999957	-17.96930000
70.55999957	-30.54292000
70.59999957	-44.92325000
70.63999957	-59.29746000
70.67999957	-73.67168000
70.71999957	-86.25141000
70.75999957	-95.23605000
70.79999957	-100.62560000
70.83999957	-102.42620000
70.87999957	-97.03055000
70.91999957	-93.44157000
70.95999957	-84.45692000
70.99999957	-79.06125000
71.03999957	-73.67168000
71.07999957	-70.07660000
71.11999957	-66.48762000
71.15999957	-66.48762000
71.19999957	-66.48762000
71.23999957	-66.48762000
71.27999957	-66.48762000
71.31999957	-66.48762000
71.35999957	-66.48762000
71.39999957	-66.48762000
71.43999957	-62.89254000
71.47999957	-57.50298000
71.51999957	-50.31281000
71.55999957	-43.12265000
71.59999956	-35.93859000
71.63999956	-25.15336000
71.67999956	-17.96930000
71.71999956	-8.98464900
71.75999956	0.00000000
71.79999956	7.18405700
71.83999956	17.96930000
71.87999956	28.74844000
71.91999956	39.52757000
71.95999956	50.31281000
71.99999956	59.29746000
72.03999956	73.67168000
72.07999956	86.25141000
72.11999956	100.62560000
72.15999956	113.20540000
72.19999956	125.78510000
72.23999956	132.97520000
72.27999956	134.76970000
72.31999956	132.97520000
72.35999956	127.57960000
72.39999956	118.59490000
72.43999956	107.81580000
72.47999956	97.03055000
72.51999956	84.45692000
72.55999956	71.87719000
72.59999956	57.50298000
72.63999956	48.51222000
72.67999956	35.93859000
72.71999956	25.15336000
72.75999956	16.16870000
72.79999956	5.38956800
72.83999956	-5.38956800
72.87999956	-16.16870000
72.91999956	-28.74844000
72.95999956	-43.12265000
72.99999956	-57.50298000
73.03999956	-71.87719000
73.07999956	-84.45692000
73.11999956	-93.44157000
73.15999956	-98.83114000
73.19999956	-98.83114000
73.23999955	-91.64098000
73.27999955	-86.25141000
73.31999955	-79.06125000
73.35999955	-77.26676000
73.39999955	-68.28211000
73.43999955	-66.48762000
73.47999955	-59.29746000
73.51999955	-59.29746000
73.55999955	-59.29746000
73.59999955	-62.89254000
73.63999955	-64.68703000
73.67999955	-64.68703000
73.71999955	-64.68703000
73.75999955	-64.68703000
73.79999955	-61.09195000
73.83999955	-57.50298000
73.87999955	-52.10730000
73.91999955	-43.12265000
73.95999955	-35.93859000
73.99999955	-28.74844000
74.03999955	-21.55827000
74.07999955	-12.57363000
74.11999955	-5.38956800
74.15999955	3.58897700
74.19999955	14.37422000
74.23999955	26.95395000
74.27999955	35.93859000
74.31999955	50.31281000
74.35999955	62.89254000
74.39999955	77.26676000
74.43999955	91.64098000
74.47999955	106.01520000
74.51999955	122.19000000
74.55999955	134.76970000
74.59999955	143.75440000
74.63999955	143.75440000
74.67999955	136.56420000
74.71999955	129.38020000
74.75999955	122.19000000
74.79999955	109.61030000
74.83999955	98.83114000
74.87999954	84.45692000
74.91999954	71.87719000
74.95999954	57.50298000
74.99999954	46.71774000
75.03999954	34.13800000
75.07999954	25.15336000
75.11999954	14.37422000
75.15999954	5.38956800
75.19999954	-3.58897700
75.23999954	-14.37422000
75.27999954	-28.74844000
75.31999954	-43.12265000
75.35999954	-57.50298000
75.39999954	-71.87719000
75.43999954	-86.25141000
75.47999954	-95.23605000
75.51999954	-102.42620000
75.55999954	-106.01520000
75.59999954	-100.62560000
75.63999954	-97.03055000
75.67999954	-89.84650000
75.71999954	-77.26676000
75.75999954	-71.87719000
75.79999954	-68.28211000
75.83999954	-64.68703000
75.87999954	-64.68703000
75.91999954	-62.89254000
75.95999954	-62.89254000
75.99999954	-64.68703000
76.03999954	-64.68703000
76.07999954	-66.48762000
76.11999954	-64.68703000
76.15999954	-62.89254000
76.19999954	-57.50298000
76.23999954	-52.10730000
76.27999954	-43.12265000
76.31999954	-34.13800000
76.35999954	-25.15336000
76.39999954	-16.16870000
76.43999954	-7.18405700
76.47999954	0.00000000
76.51999953	10.77914000
76.55999953	19.76379000
76.59999953	28.74844000
76.63999953	39.52757000
76.67999953	50.31281000
76.71999953	61.09195000
76.75999953	71.87719000
76.79999953	86.25141000
76.83999953	100.62560000
76.87999953	115.00600000
76.91999953	127.57960000
76.95999953	134.76970000
76.99999953	134.76970000
77.03999953	132.97520000
77.07999953	125.78510000
77.11999953	115.00600000
77.15999953	106.01520000
77.19999953	93.44157000
77.23999953	80.86184000
77.27999953	70.07660000
77.31999953	57.50298000
77.35999953	46.71774000
77.39999953	32.34352000
77.43999953	25.15336000
77.47999953	14.37422000
77.51999953	5.38956800
77.55999953	-5.38956800
77.59999953	-17.96930000
77.63999953	-30.54292000
77.67999953	-44.92325000
77.71999953	-59.29746000
77.75999953	-73.67168000
77.79999953	-86.25141000
77.83999953	-97.03055000
77.87999953	-100.62560000
77.91999953	-100.62560000
77.95999953	-98.83114000
77.99999953	-91.64098000
78.03999953	-84.45692000
78.07999953	-75.47227000
78.11999953	-70.07660000
78.15999952	-64.68703000
78.19999952	-62.89254000
78.23999952	-61.09195000
78.27999952	-57.50298000
78.31999952	-66.48762000
78.35999952	-73.67168000
78.39999952	-62.89254000
78.43999952	-59.29746000
78.47999952	-64.68703000
78.51999952	-64.68703000
78.55999952	-61.09195000
78.59999952	-50.31281000
78.63999952	-43.12265000
78.67999952	-37.73308000
78.71999952	-28.74844000
78.75999952	-17.96930000
78.79999952	-10.77914000
78.83999952	-3.58897700
78.87999952	7.18405700
78.91999952	16.16870000
78.95999952	25.15336000
78.99999952	37.73308000
79.03999952	50.31281000
79.07999952	61.09195000
79.11999952	73.67168000
79.15999952	88.04590000
79.19999952	100.62560000
79.23999952	116.80040000
79.27999952	127.57960000
79.31999952	134.76970000
79.35999952	138.36480000
79.39999952	136.56420000
79.43999952	127.57960000
79.47999952	120.39550000
79.51999952	109.61030000
79.55999952	95.23605000
79.59999952	82.65633000
79.63999952	70.07660000
79.67999952	57.50298000
79.71999952	44.92325000
79.75999952	34.13800000
79.79999952	23.35887000
79.83999951	14.37422000
79.87999951	3.58897700
79.91999951	-5.38956800
79.95999951	-16.16870000
79.99999951	-30.54292000
80.03999951	-43.12265000
80.07999951	-59.29746000
80.11999951	-75.47227000
80.15999951	-86.25141000
80.19999951	-97.03055000
80.23999951	-106.01520000
80.27999951	-104.22070000
80.31999951	-100.62560000
80.35999951	-88.04590000
80.39999951	-84.45692000
80.43999951	-73.67168000
80.47999951	-71.87719000
80.51999951	-64.68703000
80.55999951	-64.68703000
80.59999951	-62.89254000
80.63999951	-64.68703000
80.67999951	-62.89254000
80.71999951	-64.68703000
80.75999951	-62.89254000
80.79999951	-64.68703000
80.83999951	-61.09195000
80.87999951	-59.29746000
80.91999951	-57.50298000
80.95999951	-50.31281000
80.99999951	-43.12265000
81.03999951	-35.93859000
81.07999951	-26.95395000
81.11999951	-19.76379000
81.15999951	-12.57363000
81.19999951	-5.38956800
81.23999951	3.58897700
81.27999951	14.37422000
81.31999951	25.15336000
81.35999951	35.93859000
81.39999951	48.51222000
81.43999951	61.09195000
81.47999950	77.26676000
81.51999950	91.64098000
81.55999950	107.81580000
81.59999950	122.19000000
81.63999950	132.97520000
81.67999950	141.95990000
81.71999950	141.95990000
81.75999950	136.56420000
81.79999950	129.38020000
81.83999950	118.59490000
81.87999950	107.81580000
81.91999950	95.23605000
81.95999950	86.25141000
81.99999950	86.25141000
82.03999950	89.84650000
82.07999950	77.26676000
82.11999950	46.71774000
82.15999950	26.95395000
82.19999950	7.18405700
82.23999950	-14.37422000
82.27999950	-48.51222000
82.31999950	-73.67168000
82.35999950	-80.86184000
82.39999950	-73.67168000
82.43999950	-71.87719000
82.47999950	-79.06125000
82.51999950	-86.25141000
82.55999950	-82.65633000
82.59999950	-75.47227000
82.63999950	-75.47227000
82.67999950	-79.06125000
82.71999950	-79.06125000
82.75999950	-70.07660000
82.79999950	-59.29746000
82.83999950	-57.50298000
82.87999950	-57.50298000
82.91999950	-59.29746000
82.95999950	-57.50298000
82.99999950	-55.70238000
83.03999950	-59.29746000
83.07999950	-62.89254000
83.11999949	-68.28211000
83.15999949	-71.87719000
83.19999949	-75.47227000
83.23999949	-73.67168000
83.27999949	-73.67168000
83.31999949	-64.68703000
83.35999949	-57.50298000
83.39999949	-44.92325000
83.43999949	-32.34352000
83.47999949	-19.76379000
83.51999949	-7.18405700
83.55999949	7.18405700
83.59999949	21.55827000
83.63999949	32.34352000
83.67999949	39.52757000
83.71999949	46.71774000
83.75999949	53.90789000
83.79999949	64.68703000
83.83999949	73.67168000
83.87999949	86.25141000
83.91999949	100.62560000
83.95999949	115.00600000
83.99999949	129.38020000
84.03999949	134.76970000
84.07999949	136.56420000
84.11999949	132.97520000
84.15999949	123.99060000
84.19999949	113.20540000
84.23999949	100.62560000
84.27999949	86.25141000
84.31999949	75.47227000
84.35999949	64.68703000
84.39999949	55.70238000
84.43999949	48.51222000
84.47999949	39.52757000
84.51999949	32.34352000
84.55999949	21.55827000
84.59999949	12.57363000
84.63999949	0.00000000
84.67999949	-10.77914000
84.71999949	-26.95395000
84.75999948	-41.32816000
84.79999948	-53.90789000
84.83999948	-66.48762000
84.87999948	-86.25141000
84.91999948	-100.62560000
84.95999948	-107.81580000
84.99999948	-106.01520000
85.03999948	-102.42620000
85.07999948	-97.03055000
85.11999948	-88.04590000
85.15999948	-80.86184000
85.19999948	-71.87719000
85.23999948	-70.07660000
85.27999948	-62.89254000
85.31999948	-62.89254000
85.35999948	-59.29746000
85.39999948	-59.29746000
85.43999948	-59.29746000
85.47999948	-61.09195000
85.51999948	-61.09195000
85.55999948	-59.29746000
85.59999948	-55.70238000
85.63999948	-53.90789000
85.67999948	-48.51222000
85.71999948	-44.92325000
85.75999948	-39.52757000
85.79999948	-32.34352000
85.83999948	-26.95395000
85.87999948	-19.76379000
85.91999948	-8.98464900
85.95999948	1.79448800
85.99999948	14.37422000
86.03999948	25.15336000
86.07999948	35.93859000
86.11999948	48.51222000
86.15999948	59.29746000
86.19999948	73.67168000
86.23999948	89.84650000
86.27999948	104.22070000
86.31999948	118.59490000
86.35999948	131.17470000
86.39999947	138.36480000
86.43999947	141.95990000
86.47999947	138.36480000
86.51999947	131.17470000
86.55999947	122.19000000
86.59999947	109.61030000
86.63999947	97.03055000
86.67999947	82.65633000
86.71999947	70.07660000
86.75999947	55.70238000
86.79999947	44.92325000
86.83999947	32.34352000
86.87999947	21.55827000
86.91999947	10.77914000
86.95999947	1.79448800
86.99999947	-7.18405700
87.03999947	-19.76379000
87.07999947	-32.34352000
87.11999947	-44.92325000
87.15999947	-57.50298000
87.19999947	-71.87719000
87.23999947	-84.45692000
87.27999947	-93.44157000
87.31999947	-98.83114000
87.35999947	-98.83114000
87.39999947	-95.23605000
87.43999947	-86.25141000
87.47999947	-77.26676000
87.51999947	-66.48762000
87.55999947	-61.09195000
87.59999947	-57.50298000
87.63999947	-57.50298000
87.67999947	-57.50298000
87.71999947	-57.50298000
87.75999947	-59.29746000
87.79999947	-62.89254000
87.83999947	-62.89254000
87.87999947	-64.68703000
87.91999947	-62.89254000
87.95999947	-61.09195000
87.99999947	-57.50298000
88.03999946	-52.10730000
88.07999946	-43.12265000
88.11999946	-32.34352000
88.15999946	-32.34352000
88.19999946	-28.74844000
88.23999946	-8.98464900
88.27999946	5.38956800
88.31999946	7.18405700
88.35999946	14.37422000
88.39999946	25.15336000
88.43999946	43.12265000
88.47999946	55.70238000
88.51999946	64.68703000
88.55999946	79.06125000
88.59999946	95.23605000
88.63999946	109.61030000
88.67999946	123.99060000
88.71999946	134.76970000
88.75999946	140.15930000
88.79999946	140.15930000
88.83999946	134.76970000
88.87999946	129.38020000
88.91999946	118.59490000
88.95999946	106.01520000
88.99999946	93.44157000
89.03999946	80.86184000
89.07999946	68.28211000
89.11999946	53.90789000
89.15999946	43.12265000
89.19999946	32.34352000
89.23999946	21.55827000
89.27999946	12.57363000
89.31999946	1.79448800
89.35999946	-8.98464900
89.39999946	-19.76379000
89.43999946	-34.13800000
89.47999946	-46.71774000
89.51999946	-61.09195000
89.55999946	-73.67168000
89.59999946	-86.25141000
89.63999946	-95.23605000
89.67999945	-98.83114000
89.71999945	-95.23605000
89.75999945	-86.25141000
89.79999945	-80.86184000
89.83999945	-73.67168000
89.87999945	-68.28211000
89.91999945	-61.09195000
89.95999945	-62.89254000
89.99999945	-59.29746000
90.03999945	-57.50298000
90.07999945	-57.50298000
90.11999945	-59.29746000
90.15999945	-62.89254000
90.19999945	-62.89254000
90.23999945	-61.09195000
90.27999945	-61.09195000
90.31999945	-57.50298000
90.35999945	-52.10730000
90.39999945	-44.92325000
90.43999945	-37.73308000
90.47999945	-30.54292000
90.51999945	-21.55827000
90.55999945	-14.37422000
90.59999945	-5.38956800
90.63999945	3.58897700
90.67999945	14.37422000
90.71999945	25.15336000
90.75999945	34.13800000
90.79999945	46.71774000
90.83999945	57.50298000
90.87999945	70.07660000
90.91999945	86.25141000
90.95999945	100.62560000
90.99999945	113.20540000
91.03999945	127.57960000
91.07999945	136.56420000
91.11999945	140.15930000
91.15999945	138.36480000
91.19999945	132.97520000
91.23999945	123.99060000
91.27999945	113.20540000
91.31999945	102.42620000
91.35999944	88.04590000
91.39999944	75.47227000
91.43999944	61.09195000
91.47999944	50.31281000
91.51999944	37.73308000
91.55999944	26.95395000
91.59999944	17.96930000
91.63999944	7.18405700
91.67999944	-3.58897700
91.71999944	-14.37422000
91.75999944	-26.95395000
91.79999944	-39.52757000
91.83999944	-55.70238000
91.87999944	-70.07660000
91.91999944	-82.65633000
91.95999944	-93.44157000
91.99999944	-100.62560000
92.03999944	-100.62560000
92.07999944	-97.03055000
92.11999944	-88.04590000
92.15999944	-80.86184000
92.19999944	-75.47227000
92.23999944	-70.07660000
92.27999944	-66.48762000
92.31999944	-62.89254000
92.35999944	-61.09195000
92.39999944	-59.29746000
92.43999944	-59.29746000
92.47999944	-61.09195000
92.51999944	-61.09195000
92.55999944	-62.89254000
92.59999944	-61.09195000
92.63999944	-59.29746000
92.67999944	-57.50298000
92.71999944	-50.31281000
92.75999944	-44.92325000
92.79999944	-37.73308000
92.83999944	-28.74844000
92.87999944	-21.55827000
92.91999944	-12.57363000
92.95999944	-3.58897700
92.99999943	5.38956800
93.03999943	14.37422000
93.07999943	28.74844000
93.11999943	37.73308000
93.15999943	53.90789000
93.19999943	64.68703000
93.23999943	77.26676000
93.27999943	89.84650000
93.31999943	104.22070000
93.35999943	118.59490000
93.39999943	129.38020000
93.43999943	136.56420000
93.47999943	138.36480000
93.51999943	134.76970000
93.55999943	127.57960000
93.59999943	118.59490000
93.63999943	107.81580000
93.67999943	95.23605000
93.71999943	82.65633000
93.75999943	70.07660000
93.79999943	57.50298000
93.83999943	44.92325000
93.87999943	32.34352000
93.91999943	23.35887000
93.95999943	12.57363000
93.99999943	1.79448800
94.03999943	-7.18405700
94.07999943	-19.76379000
94.11999943	-32.34352000
94.15999943	-46.71774000
94.19999943	-61.09195000
94.23999943	-73.67168000
94.27999943	-86.25141000
94.31999943	-93.44157000
94.35999943	-97.03055000
94.39999943	-95.23605000
94.43999943	-89.84650000
94.47999943	-86.25141000
94.51999943	-79.06125000
94.55999943	-70.07660000
94.59999943	-64.68703000
94.63999942	-66.48762000
94.67999942	-66.48762000
94.71999942	-64.68703000
94.75999942	-62.89254000
94.79999942	-64.68703000
94.83999942	-66.48762000
94.87999942	-66.48762000
94.91999942	-66.48762000
94.95999942	-62.89254000
94.99999942	-61.09195000
95.03999942	-55.70238000
95.07999942	-48.51222000
95.11999942	-41.32816000
95.15999942	-32.34352000
95.19999942	-25.15336000
95.23999942	-16.16870000
95.27999942	-8.98464900
95.31999942	0.00000000
95.35999942	10.77914000
95.39999942	21.55827000
95.43999942	30.54292000
95.47999942	41.32816000
95.51999942	53.90789000
95.55999942	64.68703000
95.59999942	77.26676000
95.63999942	91.64098000
95.67999942	106.01520000
95.71999942	118.59490000
95.75999942	129.38020000
95.79999942	134.76970000
95.83999942	136.56420000
95.87999942	132.97520000
95.91999942	125.78510000
95.95999942	116.80040000
95.99999942	106.01520000
96.03999942	95.23605000
96.07999942	80.86184000
96.11999942	70.07660000
96.15999942	55.70238000
96.19999942	43.12265000
96.23999942	32.34352000
96.27999941	21.55827000
96.31999941	14.37422000
96.35999941	1.79448800
96.39999941	-8.98464900
96.43999941	-21.55827000
96.47999941	-34.13800000
96.51999941	-48.51222000
96.55999941	-62.89254000
96.59999941	-77.26676000
96.63999941	-86.25141000
96.67999941	-95.23605000
96.71999941	-97.03055000
96.75999941	-95.23605000
96.79999941	-88.04590000
96.83999941	-80.86184000
96.87999941	-71.87719000
96.91999941	-70.07660000
96.95999941	-64.68703000
96.99999941	-62.89254000
97.03999941	-61.09195000
97.07999941	-61.09195000
97.11999941	-61.09195000
97.15999941	-62.89254000
97.19999941	-64.68703000
97.23999941	-64.68703000
97.27999941	-64.68703000
97.31999941	-62.89254000
97.35999941	-61.09195000
97.39999941	-57.50298000
97.43999941	-50.31281000
97.47999941	-41.32816000
97.51999941	-32.34352000
97.55999941	-23.35887000
97.59999941	-14.37422000
97.63999941	-5.38956800
97.67999941	5.38956800
97.71999941	16.16870000
97.75999941	25.15336000
97.79999941	35.93859000
97.83999941	48.51222000
97.87999941	57.50298000
97.91999940	71.87719000
97.95999940	89.84650000
97.99999940	95.23605000
98.03999940	102.42620000
98.07999940	123.99060000
98.11999940	140.15930000
98.15999940	138.36480000
98.19999940	132.97520000
98.23999940	129.38020000
98.27999940	125.78510000
98.31999940	116.80040000
98.35999940	102.42620000
98.39999940	89.84650000
98.43999940	79.06125000
98.47999940	66.48762000
98.51999940	52.10730000
98.55999940	41.32816000
98.59999940	30.54292000
98.63999940	17.96930000
98.67999940	8.98464900
98.71999940	0.00000000
98.75999940	-10.77914000
98.79999940	-25.15336000
98.83999940	-37.73308000
98.87999940	-52.10730000
98.91999940	-66.48762000
98.95999940	-79.06125000
98.99999940	-89.84650000
99.03999940	-95.23605000
99.07999940	-98.83114000
99.11999940	-97.03055000
99.15999940	-89.84650000
99.19999940	-82.65633000
99.23999940	-75.47227000
99.27999940	-71.87719000
99.31999940	-66.48762000
99.35999940	-62.89254000
99.39999940	-59.29746000
99.43999940	-57.50298000
99.47999940	-61.09195000
99.51999940	-61.09195000
99.55999939	-61.09195000
99.59999939	-64.68703000
99.63999939	-62.89254000
99.67999939	-61.09195000
99.71999939	-57.50298000
99.75999939	-52.10730000
99.79999939	-44.92325000
99.83999939	-37.73308000
99.87999939	-28.74844000
99.91999939	-23.35887000
99.95999939	-12.57363000
99.99999939	-3.58897700
100.03999939	5.38956800
100.07999939	17.96930000
100.11999939	28.74844000
100.15999939	41.32816000
100.19999939	50.31281000
100.23999939	62.89254000
100.27999939	75.47227000
100.31999939	88.04590000
100.35999939	102.42620000
100.39999939	116.80040000
100.43999939	129.38020000
100.47999939	136.56420000
100.51999939	136.56420000
100.55999939	134.76970000
100.59999939	129.38020000
100.63999939	120.39550000
100.67999939	109.61030000
100.71999939	98.83114000
100.75999939	86.25141000
100.79999939	71.87719000
100.83999939	59.29746000
100.87999939	48.51222000
100.91999939	35.93859000
100.95999939	26.95395000
100.99999939	14.37422000
101.03999939	5.38956800
101.07999939	-5.38956800
101.11999939	-16.16870000
101.15999939	-28.74844000
101.19999938	-43.12265000
101.23999938	-57.50298000
101.27999938	-71.87719000
101.31999938	-84.45692000
101.35999938	-95.23605000
101.39999938	-100.62560000
101.43999938	-100.62560000
101.47999938	-97.03055000
101.51999938	-91.64098000
101.55999938	-82.65633000
101.59999938	-75.47227000
101.63999938	-70.07660000
101.67999938	-64.68703000
101.71999938	-61.09195000
101.75999938	-57.50298000
101.79999938	-57.50298000
101.83999938	-59.29746000
101.87999938	-61.09195000
101.91999938	-62.89254000
101.95999938	-64.68703000
101.99999938	-62.89254000
102.03999938	-61.09195000
102.07999938	-57.50298000
102.11999938	-52.10730000
102.15999938	-44.92325000
102.19999938	-37.73308000
102.23999938	-28.74844000
102.27999938	-19.76379000
102.31999938	-8.98464900
102.35999938	0.00000000
102.39999938	10.77914000
102.43999938	21.55827000
102.47999938	32.34352000
102.51999938	43.12265000
102.55999938	53.90789000
102.59999938	64.68703000
102.63999938	79.06125000
102.67999938	91.64098000
102.71999938	106.01520000
102.75999938	120.39550000
102.79999938	129.38020000
102.83999937	136.56420000
102.87999937	132.97520000
102.91999937	131.17470000
102.95999937	123.99060000
102.99999937	118.59490000
103.03999937	107.81580000
103.07999937	95.23605000
103.11999937	80.86184000
103.15999937	68.28211000
103.19999937	55.70238000
103.23999937	44.92325000
103.27999937	32.34352000
103.31999937	21.55827000
103.35999937	10.77914000
103.39999937	0.00000000
103.43999937	-10.77914000
103.47999937	-21.55827000
103.51999937	-35.93859000
103.55999937	-50.31281000
103.59999937	-64.68703000
103.63999937	-77.26676000
103.67999937	-88.04590000
103.71999937	-93.44157000
103.75999937	-98.83114000
103.79999937	-93.44157000
103.83999937	-88.04590000
103.87999937	-80.86184000
103.91999937	-75.47227000
103.95999937	-70.07660000
103.99999937	-64.68703000
104.03999937	-59.29746000
104.07999937	-59.29746000
104.11999937	-57.50298000
104.15999937	-57.50298000
104.19999937	-57.50298000
104.23999937	-59.29746000
104.27999937	-59.29746000
104.31999937	-55.70238000
104.35999937	-57.50298000
104.39999937	-59.29746000
104.43999937	-53.90789000
104.47999937	-44.92325000
104.51999936	-39.52757000
104.55999936	-30.54292000
104.59999936	-25.15336000
104.63999936	-16.16870000
104.67999936	-7.18405700
104.71999936	0.00000000
104.75999936	10.77914000
104.79999936	21.55827000
104.83999936	34.13800000
104.87999936	46.71774000
104.91999936	59.29746000
104.95999936	71.87719000
104.99999936	86.25141000
105.03999936	104.22070000
105.07999936	118.59490000
105.11999936	131.17470000
105.15999936	138.36480000
105.19999936	143.75440000
105.23999936	140.15930000
105.27999936	134.76970000
105.31999936	125.78510000
105.35999936	115.00600000
105.39999936	102.42620000
105.43999936	88.04590000
105.47999936	75.47227000
105.51999936	61.09195000
105.55999936	50.31281000
105.59999936	35.93859000
105.63999936	26.95395000
105.67999936	16.16870000
105.71999936	5.38956800
105.75999936	-5.38956800
105.79999936	-16.16870000
105.83999936	-28.74844000
105.87999936	-43.12265000
105.91999936	-57.50298000
105.95999936	-71.87719000
105.99999936	-84.45692000
106.03999936	-91.64098000
106.07999936	-98.83114000
106.11999936	-97.03055000
106.15999935	-93.44157000
106.19999935	-84.45692000
106.23999935	-79.06125000
106.27999935	-71.87719000
106.31999935	-68.28211000
106.35999935	-64.68703000
106.39999935	-61.09195000
106.43999935	-59.29746000
106.47999935	-59.29746000
106.51999935	-59.29746000
106.55999935	-61.09195000
106.59999935	-62.89254000
106.63999935	-62.89254000
106.67999935	-61.09195000
106.71999935	-59.29746000
106.75999935	-53.90789000
106.79999935	-50.31281000
106.83999935	-41.32816000
106.87999935	-34.13800000
106.91999935	-25.15336000
106.95999935	-16.16870000
106.99999935	-7.18405700
107.03999935	1.79448800
107.07999935	12.57363000
107.11999935	21.55827000
107.15999935	32.34352000
107.19999935	44.92325000
107.23999935	55.70238000
107.27999935	66.48762000
107.31999935	79.06125000
107.35999935	93.44157000
107.39999935	109.61030000
107.43999935	122.19000000
107.47999935	132.97520000
107.51999935	138.36480000
107.55999935	140.15930000
107.59999935	136.56420000
107.63999935	129.38020000
107.67999935	118.59490000
107.71999935	107.81580000
107.75999935	95.23605000
107.79999934	82.65633000
107.83999934	71.87719000
107.87999934	48.51222000
107.91999934	34.13800000
107.95999934	35.93859000
107.99999934	28.74844000
108.03999934	10.77914000
108.07999934	-1.79448800
108.11999934	-12.57363000
108.15999934	-19.76379000
108.19999934	-34.13800000
108.23999934	-50.31281000
108.27999934	-62.89254000
108.31999934	-75.47227000
108.35999934	-88.04590000
108.39999934	-97.03055000
108.43999934	-98.83114000
108.47999934	-100.62560000
108.51999934	-93.44157000
108.55999934	-82.65633000
108.59999934	-71.87719000
108.63999934	-68.28211000
108.67999934	-64.68703000
108.71999934	-59.29746000
108.75999934	-57.50298000
108.79999934	-57.50298000
108.83999934	-57.50298000
108.87999934	-57.50298000
108.91999934	-59.29746000
108.95999934	-62.89254000
108.99999934	-62.89254000
109.03999934	-61.09195000
109.07999934	-59.29746000
109.11999934	-55.70238000
109.15999934	-44.92325000
109.19999934	-44.92325000
109.23999934	-37.73308000
109.27999934	-28.74844000
109.31999934	-19.76379000
109.35999934	-10.77914000
109.39999934	0.00000000
109.43999933	14.37422000
109.47999933	23.35887000
109.51999933	35.93859000
109.55999933	50.31281000
109.59999933	62.89254000
109.63999933	75.47227000
109.67999933	89.84650000
109.71999933	107.81580000
109.75999933	118.59490000
109.79999933	131.17470000
109.83999933	136.56420000
109.87999933	141.95990000
109.91999933	140.15930000
109.95999933	132.97520000
109.99999933	123.99060000
110.03999933	115.00600000
110.07999933	104.22070000
110.11999933	89.84650000
110.15999933	77.26676000
110.19999933	62.89254000
110.23999933	50.31281000
110.27999933	39.52757000
110.31999933	28.74844000
110.35999933	16.16870000
110.39999933	7.18405700
110.43999933	-5.38956800
110.47999933	-16.16870000
110.51999933	-28.74844000
110.55999933	-43.12265000
110.59999933	-57.50298000
110.63999933	-70.07660000
110.67999933	-82.65633000
110.71999933	-91.64098000
110.75999933	-100.62560000
110.79999933	-100.62560000
110.83999933	-98.83114000
110.87999933	-89.84650000
110.91999933	-80.86184000
110.95999933	-71.87719000
110.99999933	-64.68703000
111.03999933	-61.09195000
111.07999932	-57.50298000
111.11999932	-57.50298000
111.15999932	-57.50298000
111.19999932	-57.50298000
111.23999932	-59.29746000
111.27999932	-61.09195000
111.31999932	-61.09195000
111.35999932	-62.89254000
111.39999932	-61.09195000
111.43999932	-57.50298000
111.47999932	-52.10730000
111.51999932	-44.92325000
111.55999932	-35.93859000
111.59999932	-28.74844000
111.63999932	-19.76379000
111.67999932	-12.57363000
111.71999932	-3.58897700
111.75999932	5.38956800
111.79999932	14.37422000
111.83999932	26.95395000
111.87999932	37.73308000
111.91999932	50.31281000
111.95999932	62.89254000
111.99999932	79.06125000
112.03999932	93.44157000
112.07999932	109.61030000
112.11999932	125.78510000
112.15999932	136.56420000
112.19999932	143.75440000
112.23999932	145.54890000
112.27999932	141.95990000
112.31999932	132.97520000
112.35999932	122.19000000
112.39999932	109.61030000
112.43999932	97.03055000
112.47999932	84.45692000
112.51999932	70.07660000
112.55999932	57.50298000
112.59999932	46.71774000
112.63999932	32.34352000
112.67999932	23.35887000
112.71999931	14.37422000
112.75999931	-1.79448800
112.79999931	-7.18405700
112.83999931	-19.76379000
112.87999931	-30.54292000
112.91999931	-43.12265000
112.95999931	-61.09195000
112.99999931	-73.67168000
113.03999931	-86.25141000
113.07999931	-93.44157000
113.11999931	-98.83114000
113.15999931	-95.23605000
113.19999931	-89.84650000
113.23999931	-80.86184000
113.27999931	-75.47227000
113.31999931	-68.28211000
113.35999931	-66.48762000
113.39999931	-61.09195000
113.43999931	-61.09195000
113.47999931	-59.29746000
113.51999931	-61.09195000
113.55999931	-62.89254000
113.59999931	-64.68703000
113.63999931	-66.48762000
113.67999931	-64.68703000
113.71999931	-64.68703000
113.75999931	-61.09195000
113.79999931	-57.50298000
113.83999931	-50.31281000
113.87999931	-43.12265000
113.91999931	-35.93859000
113.95999931	-25.15336000
113.99999931	-16.16870000
114.03999931	-7.18405700
114.07999931	3.58897700
114.11999931	17.96930000
114.15999931	26.95395000
114.19999931	32.34352000
114.23999931	44.92325000
114.27999931	57.50298000
114.31999931	70.07660000
114.35999930	82.65633000
114.39999930	93.44157000
114.43999930	109.61030000
114.47999930	123.99060000
114.51999930	134.76970000
114.55999930	138.36480000
114.59999930	138.36480000
114.63999930	136.56420000
114.67999930	129.38020000
114.71999930	120.39550000
114.75999930	107.81580000
114.79999930	93.44157000
114.83999930	82.65633000
114.87999930	70.07660000
114.91999930	57.50298000
114.95999930	44.92325000
114.99999930	32.34352000
115.03999930	23.35887000
115.07999930	12.57363000
115.11999930	3.58897700
115.15999930	-8.98464900
115.19999930	-19.76379000
115.23999930	-32.34352000
115.27999930	-46.71774000
115.31999930	-61.09195000
115.35999930	-77.26676000
115.39999930	-88.04590000
115.43999930	-97.03055000
115.47999930	-100.62560000
115.51999930	-98.83114000
115.55999930	-91.64098000
115.59999930	-80.86184000
115.63999930	-71.87719000
115.67999930	-66.48762000
115.71999930	-64.68703000
115.75999930	-61.09195000
115.79999930	-59.29746000
115.83999930	-59.29746000
115.87999930	-59.29746000
115.91999930	-61.09195000
115.95999930	-62.89254000
115.99999930	-62.89254000
116.03999929	-66.48762000
116.07999929	-64.68703000
116.11999929	-61.09195000
116.15999929	-55.70238000
116.19999929	-50.31281000
116.23999929	-41.32816000
116.27999929	-32.34352000
116.31999929	-25.15336000
116.35999929	-16.16870000
116.39999929	-7.18405700
116.43999929	0.00000000
116.47999929	10.77914000
116.51999929	21.55827000
116.55999929	34.13800000
116.59999929	44.92325000
116.63999929	57.50298000
116.67999929	71.87719000
116.71999929	86.25141000
116.75999929	102.42620000
116.79999929	118.59490000
116.83999929	131.17470000
116.87999929	140.15930000
116.91999929	143.75440000
116.95999929	143.75440000
116.99999929	138.36480000
117.03999929	129.38020000
117.07999929	118.59490000
117.11999929	106.01520000
117.15999929	93.44157000
117.19999929	80.86184000
117.23999929	68.28211000
117.27999929	53.90789000
117.31999929	43.12265000
117.35999929	30.54292000
117.39999929	21.55827000
117.43999929	12.57363000
117.47999929	1.79448800
117.51999929	-8.98464900
117.55999929	-21.55827000
117.59999929	-35.93859000
117.63999929	-48.51222000
117.67999928	-59.29746000
117.71999928	-82.65633000
117.75999928	-95.23605000
117.79999928	-88.04590000
117.83999928	-86.25141000
117.87999928	-86.25141000
117.91999928	-84.45692000
117.95999928	-79.06125000
117.99999928	-68.28211000
118.03999928	-64.68703000
118.07999928	-64.68703000
118.11999928	-59.29746000
118.15999928	-57.50298000
118.19999928	-57.50298000
118.23999928	-59.29746000
118.27999928	-59.29746000
118.31999928	-61.09195000
118.35999928	-64.68703000
118.39999928	-61.09195000
118.43999928	-59.29746000
118.47999928	-55.70238000
118.51999928	-50.31281000
118.55999928	-43.12265000
118.59999928	-35.93859000
118.63999928	-28.74844000
118.67999928	-21.55827000
118.71999928	-16.16870000
118.75999928	-7.18405700
118.79999928	-1.79448800
118.83999928	10.77914000
118.87999928	21.55827000
118.91999928	35.93859000
118.95999928	50.31281000
118.99999928	71.87719000
119.03999928	91.64098000
119.07999928	113.20540000
119.11999928	131.17470000
119.15999928	140.15930000
119.19999928	141.95990000
119.23999928	138.36480000
119.27999928	131.17470000
119.31999927	115.00600000
119.35999927	98.83114000
119.39999927	86.25141000
119.43999927	84.45692000
119.47999927	84.45692000
119.51999927	82.65633000
119.55999927	79.06125000
119.59999927	73.67168000
119.63999927	66.48762000
119.67999927	57.50298000
119.71999927	44.92325000
119.75999927	32.34352000
119.79999927	19.76379000
119.83999927	7.18405700
119.87999927	-1.79448800
119.91999927	-16.16870000
119.95999927	-32.34352000
119.99999927	-48.51222000
120.03999927	-62.89254000
120.07999927	-75.47227000
120.11999927	-80.86184000
120.15999927	-71.87719000
120.19999927	-64.68703000
120.23999927	-71.87719000
120.27999927	-86.25141000
120.31999927	-86.25141000
120.35999927	-91.64098000
120.39999927	-104.22070000
120.43999927	-118.59490000
120.47999927	-123.99060000
120.51999927	-107.81580000
120.55999927	-80.86184000
120.59999927	-66.48762000
120.63999927	-59.29746000
120.67999927	-52.10730000
120.71999927	-39.52757000
120.75999927	-34.13800000
120.79999927	-37.73308000
120.83999927	-46.71774000
120.87999927	-44.92325000
120.91999927	-34.13800000
120.95999926	-23.35887000
120.99999926	-17.96930000
121.03999926	-14.37422000
121.07999926	-5.38956800
121.11999926	5.38956800
121.15999926	16.16870000
121.19999926	21.55827000
121.23999926	26.95395000
121.27999926	34.13800000
121.31999926	43.12265000
121.35999926	52.10730000
121.39999926	62.89254000
121.43999926	73.67168000
121.47999926	86.25141000
121.51999926	104.22070000
121.55999926	122.19000000
121.59999926	134.76970000
121.63999926	140.15930000
121.67999926	143.75440000
121.71999926	141.95990000
121.75999926	136.56420000
121.79999926	125.78510000
121.83999926	107.81580000
121.87999926	91.64098000
121.91999926	77.26676000
121.95999926	61.09195000
121.99999926	46.71774000
122.03999926	32.34352000
122.07999926	23.35887000
122.11999926	14.37422000
122.15999926	5.38956800
122.19999926	-3.58897700
122.23999926	-17.96930000
122.27999926	-34.13800000
122.31999926	-48.51222000
122.35999926	-66.48762000
122.39999926	-80.86184000
122.43999926	-93.44157000
122.47999926	-100.62560000
122.51999926	-102.42620000
122.55999926	-97.03055000
122.59999925	-93.44157000
122.63999925	-82.65633000
122.67999925	-73.67168000
122.71999925	-64.68703000
122.75999925	-62.89254000
122.79999925	-62.89254000
122.83999925	-64.68703000
122.87999925	-64.68703000
122.91999925	-64.68703000
122.95999925	-66.48762000
122.99999925	-68.28211000
123.03999925	-70.07660000
123.07999925	-70.07660000
123.11999925	-68.28211000
123.15999925	-66.48762000
123.19999925	-61.09195000
123.23999925	-52.10730000
123.27999925	-44.92325000
123.31999925	-35.93859000
123.35999925	-28.74844000
123.39999925	-21.55827000
123.43999925	-14.37422000
123.47999925	-5.38956800
123.51999925	5.38956800
123.55999925	17.96930000
123.59999925	28.74844000
123.63999925	41.32816000
123.67999925	53.90789000
123.71999925	64.68703000
123.75999925	77.26676000
123.79999925	89.84650000
123.83999925	106.01520000
123.87999925	118.59490000
123.91999925	123.99060000
123.95999925	127.57960000
123.99999925	129.38020000
124.03999925	129.38020000
124.07999925	125.78510000
124.11999925	116.80040000
124.15999925	106.01520000
124.19999925	97.03055000
124.23999924	86.25141000
124.27999924	73.67168000
124.31999924	61.09195000
124.35999924	48.51222000
124.39999924	37.73308000
124.43999924	28.74844000
124.47999924	19.76379000
124.51999924	8.98464900
124.55999924	-1.79448800
124.59999924	-12.57363000
124.63999924	-25.15336000
124.67999924	-39.52757000
124.71999924	-53.90789000
124.75999924	-68.28211000
124.79999924	-80.86184000
124.83999924	-93.44157000
124.87999924	-97.03055000
124.91999924	-100.62560000
124.95999924	-93.44157000
124.99999924	-88.04590000
125.03999924	-79.06125000
125.07999924	-77.26676000
125.11999924	-70.07660000
125.15999924	-68.28211000
125.19999924	-64.68703000
125.23999924	-64.68703000
125.27999924	-64.68703000
125.31999924	-64.68703000
125.35999924	-64.68703000
125.39999924	-66.48762000
125.43999924	-66.48762000
125.47999924	-64.68703000
125.51999924	-62.89254000
125.55999924	-57.50298000
125.59999924	-50.31281000
125.63999924	-43.12265000
125.67999924	-35.93859000
125.71999924	-28.74844000
125.75999924	-21.55827000
125.79999924	-14.37422000
125.83999924	-7.18405700
125.87999923	1.79448800
125.91999923	12.57363000
125.95999923	23.35887000
125.99999923	34.13800000
126.03999923	44.92325000
126.07999923	57.50298000
126.11999923	71.87719000
126.15999923	86.25141000
126.19999923	102.42620000
126.23999923	115.00600000
126.27999923	127.57960000
126.31999923	134.76970000
126.35999923	138.36480000
126.39999923	136.56420000
126.43999923	131.17470000
126.47999923	122.19000000
126.51999923	113.20540000
126.55999923	100.62560000
126.59999923	88.04590000
126.63999923	75.47227000
126.67999923	62.89254000
126.71999923	50.31281000
126.75999923	37.73308000
126.79999923	26.95395000
126.83999923	16.16870000
126.87999923	7.18405700
126.91999923	-3.58897700
126.95999923	-16.16870000
126.99999923	-28.74844000
127.03999923	-41.32816000
127.07999923	-55.70238000
127.11999923	-68.28211000
127.15999923	-80.86184000
127.19999923	-91.64098000
127.23999923	-95.23605000
127.27999923	-95.23605000
127.31999923	-91.64098000
127.35999923	-86.25141000
127.39999923	-79.06125000
127.43999923	-71.87719000
127.47999923	-66.48762000
127.51999923	-61.09195000
127.55999922	-70.07660000
127.59999922	-71.87719000
127.63999922	-57.50298000
127.67999922	-57.50298000
127.71999922	-64.68703000
127.75999922	-68.28211000
127.79999922	-68.28211000
127.83999922	-62.89254000
127.87999922	-62.89254000
127.91999922	-59.29746000
127.95999922	-52.10730000
127.99999922	-43.12265000
128.03999922	-37.73308000
128.07999922	-28.74844000
128.11999922	-19.76379000
128.15999922	-12.57363000
128.19999922	-5.38956800
128.23999922	5.38956800
128.27999922	17.96930000
128.31999922	28.74844000
128.35999922	37.73308000
128.39999922	50.31281000
128.43999922	62.89254000
128.47999922	75.47227000
128.51999922	89.84650000
128.55999922	104.22070000
128.59999922	118.59490000
128.63999922	129.38020000
128.67999922	136.56420000
128.71999922	136.56420000
128.75999922	134.76970000
128.79999922	129.38020000
128.83999922	120.39550000
128.87999922	109.61030000
128.91999922	98.83114000
128.95999922	84.45692000
128.99999922	73.67168000
129.03999922	62.89254000
129.07999922	46.71774000
129.11999922	35.93859000
129.15999922	28.74844000
129.19999921	17.96930000
129.23999921	5.38956800
129.27999921	-3.58897700
129.31999921	-14.37422000
129.35999921	-26.95395000
129.39999921	-43.12265000
129.43999921	-57.50298000
129.47999921	-68.28211000
129.51999921	-82.65633000
129.55999921	-93.44157000
129.59999921	-102.42620000
129.63999921	-102.42620000
129.67999921	-100.62560000
129.71999921	-95.23605000
129.75999921	-86.25141000
129.79999921	-79.06125000
129.83999921	-68.28211000
129.87999921	-62.89254000
129.91999921	-59.29746000
129.95999921	-59.29746000
129.99999921	-59.29746000
130.03999921	-57.50298000
130.07999921	-61.09195000
130.11999921	-62.89254000
130.15999921	-66.48762000
130.19999921	-66.48762000
130.23999921	-66.48762000
130.27999921	-61.09195000
130.31999921	-55.70238000
130.35999921	-48.51222000
130.39999921	-37.73308000
130.43999921	-28.74844000
130.47999921	-19.76379000
130.51999921	-10.77914000
130.55999921	-1.79448800
130.59999921	8.98464900
130.63999921	17.96930000
130.67999921	28.74844000
130.71999921	41.32816000
130.75999921	52.10730000
130.79999921	62.89254000
130.83999920	73.67168000
130.87999920	88.04590000
130.91999920	100.62560000
130.95999920	116.80040000
130.99999920	127.57960000
131.03999920	134.76970000
131.07999920	136.56420000
131.11999920	134.76970000
131.15999920	129.38020000
131.19999920	120.39550000
131.23999920	107.81580000
131.27999920	97.03055000
131.31999920	82.65633000
131.35999920	71.87719000
131.39999920	57.50298000
131.43999920	46.71774000
131.47999920	34.13800000
131.51999920	23.35887000
131.55999920	12.57363000
131.59999920	3.58897700
131.63999920	-7.18405700
131.67999920	-17.96930000
131.71999920	-30.54292000
131.75999920	-44.92325000
131.79999920	-59.29746000
131.83999920	-73.67168000
131.87999920	-86.25141000
131.91999920	-95.23605000
131.95999920	-100.62560000
131.99999920	-100.62560000
132.03999920	-93.44157000
132.07999920	-86.25141000
132.11999920	-79.06125000
132.15999920	-73.67168000
132.19999920	-66.48762000
132.23999920	-64.68703000
132.27999920	-62.89254000
132.31999920	-61.09195000
132.35999920	-61.09195000
132.39999920	-64.68703000
132.43999920	-68.28211000
132.47999919	-66.48762000
132.51999919	-68.28211000
132.55999919	-62.89254000
132.59999919	-61.09195000
132.63999919	-59.29746000
132.67999919	-52.10730000
132.71999919	-44.92325000
132.75999919	-35.93859000
132.79999919	-28.74844000
132.83999919	-19.76379000
132.87999919	-12.57363000
132.91999919	-3.58897700
132.95999919	5.38956800
132.99999919	16.16870000
133.03999919	26.95395000
133.07999919	37.73308000
133.11999919	50.31281000
133.15999919	62.89254000
133.19999919	77.26676000
133.23999919	89.84650000
133.27999919	104.22070000
133.31999919	118.59490000
133.35999919	131.17470000
133.39999919	138.36480000
133.43999919	141.95990000
133.47999919	136.56420000
133.51999919	131.17470000
133.55999919	122.19000000
133.59999919	109.61030000
133.63999919	95.23605000
133.67999919	84.45692000
133.71999919	71.87719000
133.75999919	57.50298000
133.79999919	46.71774000
133.83999919	32.34352000
133.87999919	23.35887000
133.91999919	12.57363000
133.95999919	1.79448800
133.99999919	-7.18405700
134.03999919	-19.76379000
134.07999919	-32.34352000
134.11999918	-43.12265000
134.15999918	-55.70238000
134.19999918	-71.87719000
134.23999918	-88.04590000
134.27999918	-97.03055000
134.31999918	-100.62560000
134.35999918	-102.42620000
134.39999918	-98.83114000
134.43999918	-95.23605000
134.47999918	-86.25141000
134.51999918	-79.06125000
134.55999918	-70.07660000
134.59999918	-66.48762000
134.63999918	-61.09195000
134.67999918	-61.09195000
134.71999918	-59.29746000
134.75999918	-61.09195000
134.79999918	-62.89254000
134.83999918	-64.68703000
134.87999918	-64.68703000
134.91999918	-62.89254000
134.95999918	-61.09195000
134.99999918	-57.50298000
135.03999918	-52.10730000
135.07999918	-44.92325000
135.11999918	-35.93859000
135.15999918	-28.74844000
135.19999918	-21.55827000
135.23999918	-12.57363000
135.27999918	-3.58897700
135.31999918	5.38956800
135.35999918	14.37422000
135.39999918	26.95395000
135.43999918	37.73308000
135.47999918	50.31281000
135.51999918	61.09195000
135.55999918	77.26676000
135.59999918	89.84650000
135.63999918	104.22070000
135.67999918	120.39550000
135.71999918	131.17470000
135.75999917	140.15930000
135.79999917	141.95990000
135.83999917	136.56420000
135.87999917	129.38020000
135.91999917	120.39550000
135.95999917	107.81580000
135.99999917	95.23605000
136.03999917	82.65633000
136.07999917	70.07660000
136.11999917	57.50298000
136.15999917	43.12265000
136.19999917	32.34352000
136.23999917	21.55827000
136.27999917	12.57363000
136.31999917	1.79448800
136.35999917	-7.18405700
136.39999917	-19.76379000
136.43999917	-32.34352000
136.47999917	-46.71774000
136.51999917	-59.29746000
136.55999917	-73.67168000
136.59999917	-86.25141000
136.63999917	-95.23605000
136.67999917	-98.83114000
136.71999917	-98.83114000
136.75999917	-97.03055000
136.79999917	-86.25141000
136.83999917	-79.06125000
136.87999917	-68.28211000
136.91999917	-62.89254000
136.95999917	-57.50298000
136.99999917	-53.90789000
137.03999917	-55.70238000
137.07999917	-55.70238000
137.11999917	-57.50298000
137.15999917	-59.29746000
137.19999917	-61.09195000
137.23999917	-62.89254000
137.27999917	-62.89254000
137.31999917	-61.09195000
137.35999917	-52.10730000
137.39999916	-57.50298000
137.43999916	-53.90789000
137.47999916	-35.93859000
137.51999916	-23.35887000
137.55999916	-23.35887000
137.59999916	-17.96930000
137.63999916	-7.18405700
137.67999916	7.18405700
137.71999916	17.96930000
137.75999916	28.74844000
137.79999916	43.12265000
137.83999916	57.50298000
137.87999916	70.07660000
137.91999916	86.25141000
137.95999916	100.62560000
137.99999916	118.59490000
138.03999916	131.17470000
138.07999916	141.95990000
138.11999916	147.34950000
138.15999916	143.75440000
138.19999916	138.36480000
138.23999916	127.57960000
138.27999916	118.59490000
138.31999916	106.01520000
138.35999916	91.64098000
138.39999916	79.06125000
138.43999916	64.68703000
138.47999916	52.10730000
138.51999916	39.52757000
138.55999916	28.74844000
138.59999916	19.76379000
138.63999916	10.77914000
138.67999916	0.00000000
138.71999916	-10.77914000
138.75999916	-23.35887000
138.79999916	-35.93859000
138.83999916	-50.31281000
138.87999916	-64.68703000
138.91999916	-79.06125000
138.95999916	-89.84650000
138.99999916	-97.03055000
139.03999915	-100.62560000
139.07999915	-95.23605000
139.11999915	-93.44157000
139.15999915	-84.45692000
139.19999915	-79.06125000
139.23999915	-66.48762000
139.27999915	-62.89254000
139.31999915	-53.90789000
139.35999915	-52.10730000
139.39999915	-52.10730000
139.43999915	-53.90789000
139.47999915	-57.50298000
139.51999915	-57.50298000
139.55999915	-59.29746000
139.59999915	-61.09195000
139.63999915	-61.09195000
139.67999915	-57.50298000
139.71999915	-52.10730000
139.75999915	-46.71774000
139.79999915	-39.52757000
139.83999915	-32.34352000
139.87999915	-23.35887000
139.91999915	-14.37422000
139.95999915	-5.38956800
139.99999915	1.79448800
140.03999915	12.57363000
140.07999915	23.35887000
140.11999915	35.93859000
140.15999915	46.71774000
140.19999915	61.09195000
140.23999915	75.47227000
140.27999915	91.64098000
140.31999915	106.01520000
140.35999915	122.19000000
140.39999915	134.76970000
140.43999915	143.75440000
140.47999915	145.54890000
140.51999915	141.95990000
140.55999915	134.76970000
140.59999915	122.19000000
140.63999915	109.61030000
140.67999915	98.83114000
140.71999914	84.45692000
140.75999914	70.07660000
140.79999914	57.50298000
140.83999914	46.71774000
140.87999914	34.13800000
140.91999914	23.35887000
140.95999914	14.37422000
140.99999914	3.58897700
141.03999914	-7.18405700
141.07999914	-16.16870000
141.11999914	-30.54292000
141.15999914	-44.92325000
141.19999914	-59.29746000
141.23999914	-73.67168000
141.27999914	-86.25141000
141.31999914	-95.23605000
141.35999914	-98.83114000
141.39999914	-97.03055000
141.43999914	-91.64098000
141.47999914	-82.65633000
141.51999914	-73.67168000
141.55999914	-68.28211000
141.59999914	-62.89254000
141.63999914	-59.29746000
141.67999914	-57.50298000
141.71999914	-57.50298000
141.75999914	-57.50298000
141.79999914	-59.29746000
141.83999914	-61.09195000
141.87999914	-62.89254000
141.91999914	-64.68703000
141.95999914	-62.89254000
141.99999914	-59.29746000
142.03999914	-55.70238000
142.07999914	-48.51222000
142.11999914	-41.32816000
142.15999914	-32.34352000
142.19999914	-23.35887000
142.23999914	-14.37422000
142.27999914	-10.77914000
142.31999914	0.00000000
142.35999913	8.98464900
142.39999913	23.35887000
142.43999913	32.34352000
142.47999913	43.12265000
142.51999913	53.90789000
142.55999913	66.48762000
142.59999913	80.86184000
142.63999913	97.03055000
142.67999913	111.41090000
142.71999913	123.99060000
142.75999913	134.76970000
142.79999913	140.15930000
142.83999913	140.15930000
142.87999913	136.56420000
142.91999913	127.57960000
142.95999913	116.80040000
142.99999913	106.01520000
143.03999913	93.44157000
143.07999913	79.06125000
143.11999913	66.48762000
143.15999913	53.90789000
143.19999913	41.32816000
143.23999913	28.74844000
143.27999913	17.96930000
143.31999913	7.18405700
143.35999913	-1.79448800
143.39999913	-12.57363000
143.43999913	-25.15336000
143.47999913	-39.52757000
143.51999913	-52.10730000
143.55999913	-66.48762000
143.59999913	-80.86184000
143.63999913	-89.84650000
143.67999913	-97.03055000
143.71999913	-100.62560000
143.75999913	-97.03055000
143.79999913	-91.64098000
143.83999913	-80.86184000
143.87999913	-71.87719000
143.91999913	-68.28211000
143.95999913	-68.28211000
143.99999912	-62.89254000
144.03999912	-57.50298000
144.07999912	-57.50298000
144.11999912	-59.29746000
144.15999912	-61.09195000
144.19999912	-61.09195000
144.23999912	-62.89254000
144.27999912	-64.68703000
144.31999912	-62.89254000
144.35999912	-59.29746000
144.39999912	-53.90789000
144.43999912	-43.12265000
144.47999912	-37.73308000
144.51999912	-30.54292000
144.55999912	-23.35887000
144.59999912	-14.37422000
144.63999912	-5.38956800
144.67999912	3.58897700
144.71999912	14.37422000
144.75999912	25.15336000
144.79999912	35.93859000
144.83999912	48.51222000
144.87999912	59.29746000
144.91999912	71.87719000
144.95999912	86.25141000
144.99999912	100.62560000
145.03999912	115.00600000
145.07999912	127.57960000
145.11999912	134.76970000
145.15999912	136.56420000
145.19999912	136.56420000
145.23999912	129.38020000
145.27999912	122.19000000
145.31999912	111.41090000
145.35999912	100.62560000
145.39999912	88.04590000
145.43999912	75.47227000
145.47999912	61.09195000
145.51999912	50.31281000
145.55999912	37.73308000
145.59999912	26.95395000
145.63999911	16.16870000
145.67999911	5.38956800
145.71999911	-5.38956800
145.75999911	-17.96930000
145.79999911	-30.54292000
145.83999911	-44.92325000
145.87999911	-59.29746000
145.91999911	-71.87719000
145.95999911	-84.45692000
145.99999911	-93.44157000
146.03999911	-97.03055000
146.07999911	-97.03055000
146.11999911	-93.44157000
146.15999911	-88.04590000
146.19999911	-80.86184000
146.23999911	-73.67168000
146.27999911	-68.28211000
146.31999911	-64.68703000
146.35999911	-61.09195000
146.39999911	-59.29746000
146.43999911	-61.09195000
146.47999911	-61.09195000
146.51999911	-62.89254000
146.55999911	-64.68703000
146.59999911	-64.68703000
146.63999911	-62.89254000
146.67999911	-61.09195000
146.71999911	-55.70238000
146.75999911	-50.31281000
146.79999911	-43.12265000
146.83999911	-35.93859000
146.87999911	-28.74844000
146.91999911	-19.76379000
146.95999911	-10.77914000
146.99999911	-1.79448800
147.03999911	7.18405700
147.07999911	16.16870000
147.11999911	26.95395000
147.15999911	39.52757000
147.19999911	53.90789000
147.23999911	61.09195000
147.27999910	64.68703000
147.31999910	89.84650000
147.35999910	113.20540000
147.39999910	122.19000000
147.43999910	129.38020000
147.47999910	134.76970000
147.51999910	140.15930000
147.55999910	140.15930000
147.59999910	129.38020000
147.63999910	120.39550000
147.67999910	109.61030000
147.71999910	97.03055000
147.75999910	82.65633000
147.79999910	71.87719000
147.83999910	57.50298000
147.87999910	44.92325000
147.91999910	34.13800000
147.95999910	23.35887000
147.99999910	12.57363000
148.03999910	1.79448800
148.07999910	-8.98464900
148.11999910	-19.76379000
148.15999910	-32.34352000
148.19999910	-48.51222000
148.23999910	-62.89254000
148.27999910	-75.47227000
148.31999910	-86.25141000
148.35999910	-97.03055000
148.39999910	-98.83114000
148.43999910	-98.83114000
148.47999910	-89.84650000
148.51999910	-84.45692000
148.55999910	-79.06125000
148.59999910	-73.67168000
148.63999910	-68.28211000
148.67999910	-66.48762000
148.71999910	-64.68703000
148.75999910	-66.48762000
148.79999910	-84.45692000
148.83999910	-95.23605000
148.87999910	-82.65633000
148.91999909	-68.28211000
148.95999909	-64.68703000
148.99999909	-52.10730000
149.03999909	-32.34352000
149.07999909	-8.98464900
149.11999909	3.58897700
149.15999909	0.00000000
149.19999909	-12.57363000
149.23999909	-16.16870000
149.27999909	-16.16870000
149.31999909	-14.37422000
149.35999909	-17.96930000
149.39999909	-14.37422000
149.43999909	0.00000000
149.47999909	21.55827000
149.51999909	35.93859000
149.55999909	43.12265000
149.59999909	55.70238000
149.63999909	73.67168000
149.67999909	89.84650000
149.71999909	107.81580000
149.75999909	120.39550000
149.79999909	127.57960000
149.83999909	134.76970000
149.87999909	138.36480000
149.91999909	136.56420000
149.95999909	131.17470000
149.99999909	123.99060000
150.03999909	115.00600000
150.07999909	106.01520000
150.11999909	95.23605000
150.15999909	79.06125000
150.19999909	62.89254000
150.23999909	44.92325000
150.27999909	30.54292000
150.31999909	14.37422000
150.35999909	0.00000000
150.39999909	-12.57363000
150.43999909	-23.35887000
150.47999909	-32.34352000
150.51999909	-43.12265000
150.55999908	-53.90789000
150.59999908	-68.28211000
150.63999908	-79.06125000
150.67999908	-88.04590000
150.71999908	-98.83114000
150.75999908	-100.62560000
150.79999908	-100.62560000
150.83999908	-93.44157000
150.87999908	-86.25141000
150.91999908	-84.45692000
150.95999908	-98.83114000
150.99999908	-93.44157000
151.03999908	-68.28211000
151.07999908	-50.31281000
151.11999908	-50.31281000
151.15999908	-50.31281000
151.19999908	-28.74844000
151.23999908	-14.37422000
151.27999908	-23.35887000
151.31999908	-43.12265000
151.35999908	-61.09195000
151.39999908	-64.68703000
151.43999908	-59.29746000
151.47999908	-59.29746000
151.51999908	-64.68703000
151.55999908	-57.50298000
151.59999908	-35.93859000
151.63999908	-16.16870000
151.67999908	-8.98464900
151.71999908	-7.18405700
151.75999908	3.58897700
151.79999908	19.76379000
151.83999908	30.54292000
151.87999908	41.32816000
151.91999908	50.31281000
151.95999908	62.89254000
151.99999908	80.86184000
152.03999908	100.62560000
152.07999908	116.80040000
152.11999908	129.38020000
152.15999908	140.15930000
152.19999908	149.14400000
152.23999907	150.94450000
152.27999907	145.54890000
152.31999907	132.97520000
152.35999907	113.20540000
152.39999907	98.83114000
152.43999907	84.45692000
152.47999907	68.28211000
152.51999907	50.31281000
152.55999907	35.93859000
152.59999907	28.74844000
152.63999907	25.15336000
152.67999907	16.16870000
152.71999907	7.18405700
152.75999907	0.00000000
152.79999907	-8.98464900
152.83999907	-21.55827000
152.87999907	-37.73308000
152.91999907	-55.70238000
152.95999907	-70.07660000
152.99999907	-82.65633000
153.03999907	-93.44157000
153.07999907	-97.03055000
153.11999907	-100.62560000
153.15999907	-93.44157000
153.19999907	-84.45692000
153.23999907	-73.67168000
153.27999907	-68.28211000
153.31999907	-66.48762000
153.35999907	-64.68703000
153.39999907	-64.68703000
153.43999907	-64.68703000
153.47999907	-64.68703000
153.51999907	-62.89254000
153.55999907	-64.68703000
153.59999907	-70.07660000
153.63999907	-70.07660000
153.67999907	-66.48762000
153.71999907	-62.89254000
153.75999907	-59.29746000
153.79999907	-55.70238000
153.83999907	-44.92325000
153.87999906	-35.93859000
153.91999906	-28.74844000
153.95999906	-21.55827000
153.99999906	-14.37422000
154.03999906	-5.38956800
154.07999906	3.58897700
154.11999906	14.37422000
154.15999906	25.15336000
154.19999906	35.93859000
154.23999906	48.51222000
154.27999906	61.09195000
154.31999906	73.67168000
154.35999906	86.25141000
154.39999906	100.62560000
154.43999906	115.00600000
154.47999906	127.57960000
154.51999906	132.97520000
154.55999906	136.56420000
154.59999906	134.76970000
154.63999906	131.17470000
154.67999906	122.19000000
154.71999906	113.20540000
154.75999906	102.42620000
154.79999906	88.04590000
154.83999906	77.26676000
154.87999906	62.89254000
154.91999906	50.31281000
154.95999906	37.73308000
154.99999906	26.95395000
155.03999906	17.96930000
155.07999906	7.18405700
155.11999906	-5.38956800
155.15999906	-16.16870000
155.19999906	-30.54292000
155.23999906	-43.12265000
155.27999906	-59.29746000
155.31999906	-73.67168000
155.35999906	-88.04590000
155.39999906	-95.23605000
155.43999906	-104.22070000
155.47999906	-100.62560000
155.51999905	-93.44157000
155.55999905	-84.45692000
155.59999905	-77.26676000
155.63999905	-70.07660000
155.67999905	-64.68703000
155.71999905	-61.09195000
155.75999905	-59.29746000
155.79999905	-59.29746000
155.83999905	-57.50298000
155.87999905	-59.29746000
155.91999905	-61.09195000
155.95999905	-62.89254000
155.99999905	-64.68703000
156.03999905	-64.68703000
156.07999905	-61.09195000
156.11999905	-57.50298000
156.15999905	-50.31281000
156.19999905	-43.12265000
156.23999905	-35.93859000
156.27999905	-26.95395000
156.31999905	-19.76379000
156.35999905	-12.57363000
156.39999905	-5.38956800
156.43999905	5.38956800
156.47999905	14.37422000
156.51999905	26.95395000
156.55999905	39.52757000
156.59999905	50.31281000
156.63999905	64.68703000
156.67999905	79.06125000
156.71999905	93.44157000
156.75999905	109.61030000
156.79999905	125.78510000
156.83999905	136.56420000
156.87999905	141.95990000
156.91999905	143.75440000
156.95999905	138.36480000
156.99999905	129.38020000
157.03999905	123.99060000
157.07999905	106.01520000
157.11999905	84.45692000
157.15999904	80.86184000
157.19999904	77.26676000
157.23999904	61.09195000
157.27999904	43.12265000
157.31999904	30.54292000
157.35999904	25.15336000
157.39999904	16.16870000
157.43999904	3.58897700
157.47999904	-8.98464900
157.51999904	-17.96930000
157.55999904	-32.34352000
157.59999904	-48.51222000
157.63999904	-61.09195000
157.67999904	-73.67168000
157.71999904	-88.04590000
157.75999904	-97.03055000
157.79999904	-98.83114000
157.83999904	-98.83114000
157.87999904	-93.44157000
157.91999904	-86.25141000
157.95999904	-80.86184000
157.99999904	-73.67168000
158.03999904	-70.07660000
158.07999904	-64.68703000
158.11999904	-61.09195000
158.15999904	-62.89254000
158.19999904	-62.89254000
158.23999904	-64.68703000
158.27999904	-64.68703000
158.31999904	-64.68703000
158.35999904	-64.68703000
158.39999904	-64.68703000
158.43999904	-61.09195000
158.47999904	-53.90789000
158.51999904	-50.31281000
158.55999904	-41.32816000
158.59999904	-32.34352000
158.63999904	-23.35887000
158.67999904	-16.16870000
158.71999904	-7.18405700
158.75999904	3.58897700
158.79999903	10.77914000
158.83999903	19.76379000
158.87999903	30.54292000
158.91999903	43.12265000
158.95999903	53.90789000
158.99999903	64.68703000
159.03999903	79.06125000
159.07999903	93.44157000
159.11999903	107.81580000
159.15999903	122.19000000
159.19999903	132.97520000
159.23999903	136.56420000
159.27999903	136.56420000
159.31999903	132.97520000
159.35999903	127.57960000
159.39999903	116.80040000
159.43999903	104.22070000
159.47999903	93.44157000
159.51999903	80.86184000
159.55999903	68.28211000
159.59999903	55.70238000
159.63999903	43.12265000
159.67999903	32.34352000
159.71999903	21.55827000
159.75999903	12.57363000
159.79999903	3.58897700
159.83999903	-8.98464900
159.87999903	-21.55827000
159.91999903	-34.13800000
159.95999903	-48.51222000
159.99999903	-62.89254000
160.03999903	-77.26676000
160.07999903	-86.25141000
160.11999903	-95.23605000
160.15999903	-97.03055000
160.19999903	-97.03055000
160.23999903	-89.84650000
160.27999903	-86.25141000
160.31999903	-79.06125000
160.35999903	-73.67168000
160.39999903	-68.28211000
160.43999902	-64.68703000
160.47999902	-64.68703000
160.51999902	-64.68703000
160.55999902	-64.68703000
160.59999902	-64.68703000
160.63999902	-66.48762000
160.67999902	-68.28211000
160.71999902	-66.48762000
160.75999902	-64.68703000
160.79999902	-61.09195000
160.83999902	-55.70238000
160.87999902	-48.51222000
160.91999902	-41.32816000
160.95999902	-32.34352000
160.99999902	-25.15336000
161.03999902	-16.16870000
161.07999902	-8.98464900
161.11999902	0.00000000
161.15999902	8.98464900
161.19999902	19.76379000
161.23999902	30.54292000
161.27999902	43.12265000
161.31999902	53.90789000
161.35999902	64.68703000
161.39999902	79.06125000
161.43999902	93.44157000
161.47999902	107.81580000
161.51999902	122.19000000
161.55999902	131.17470000
161.59999902	138.36480000
161.63999902	138.36480000
161.67999902	134.76970000
161.71999902	127.57960000
161.75999902	118.59490000
161.79999902	106.01520000
161.83999902	95.23605000
161.87999902	82.65633000
161.91999902	70.07660000
161.95999902	52.10730000
161.99999902	43.12265000
162.03999902	32.34352000
162.07999901	25.15336000
162.11999901	14.37422000
162.15999901	3.58897700
162.19999901	-8.98464900
162.23999901	-21.55827000
162.27999901	-34.13800000
162.31999901	-46.71774000
162.35999901	-61.09195000
162.39999901	-77.26676000
162.43999901	-88.04590000
162.47999901	-98.83114000
162.51999901	-102.42620000
162.55999901	-104.22070000
162.59999901	-98.83114000
162.63999901	-93.44157000
162.67999901	-84.45692000
162.71999901	-79.06125000
162.75999901	-70.07660000
162.79999901	-66.48762000
162.83999901	-64.68703000
162.87999901	-64.68703000
162.91999901	-64.68703000
162.95999901	-66.48762000
162.99999901	-66.48762000
163.03999901	-66.48762000
163.07999901	-66.48762000
163.11999901	-66.48762000
163.15999901	-62.89254000
163.19999901	-57.50298000
163.23999901	-50.31281000
163.27999901	-43.12265000
163.31999901	-32.34352000
163.35999901	-23.35887000
163.39999901	-19.76379000
163.43999901	-12.57363000
163.47999901	-1.79448800
163.51999901	10.77914000
163.55999901	21.55827000
163.59999901	28.74844000
163.63999901	39.52757000
163.67999901	52.10730000
163.71999900	62.89254000
163.75999900	77.26676000
163.79999900	89.84650000
163.83999900	106.01520000
163.87999900	120.39550000
163.91999900	131.17470000
163.95999900	136.56420000
163.99999900	136.56420000
164.03999900	132.97520000
164.07999900	127.57960000
164.11999900	118.59490000
164.15999900	106.01520000
164.19999900	93.44157000
164.23999900	80.86184000
164.27999900	70.07660000
164.31999900	57.50298000
164.35999900	43.12265000
164.39999900	34.13800000
164.43999900	23.35887000
164.47999900	14.37422000
164.51999900	3.58897700
164.55999900	-8.98464900
164.59999900	-21.55827000
164.63999900	-34.13800000
164.67999900	-48.51222000
164.71999900	-61.09195000
164.75999900	-77.26676000
164.79999900	-88.04590000
164.83999900	-97.03055000
164.87999900	-100.62560000
164.91999900	-100.62560000
164.95999900	-93.44157000
164.99999900	-84.45692000
165.03999900	-77.26676000
165.07999900	-73.67168000
165.11999900	-68.28211000
165.15999900	-66.48762000
165.19999900	-64.68703000
165.23999900	-64.68703000
165.27999900	-64.68703000
165.31999900	-64.68703000
165.35999900	-66.48762000
165.39999899	-68.28211000
165.43999899	-68.28211000
165.47999899	-64.68703000
165.51999899	-62.89254000
165.55999899	-55.70238000
165.59999899	-50.31281000
165.63999899	-41.32816000
165.67999899	-34.13800000
165.71999899	-25.15336000
165.75999899	-17.96930000
165.79999899	-10.77914000
165.83999899	-3.58897700
165.87999899	5.38956800
165.91999899	14.37422000
165.95999899	25.15336000
165.99999899	37.73308000
166.03999899	50.31281000
166.07999899	62.89254000
166.11999899	79.06125000
166.15999899	93.44157000
166.19999899	107.81580000
166.23999899	123.99060000
166.27999899	134.76970000
166.31999899	141.95990000
166.35999899	141.95990000
166.39999899	138.36480000
166.43999899	131.17470000
166.47999899	120.39550000
166.51999899	107.81580000
166.55999899	95.23605000
166.59999899	82.65633000
166.63999899	70.07660000
166.67999899	57.50298000
166.71999899	46.71774000
166.75999899	34.13800000
166.79999899	25.15336000
166.83999899	14.37422000
166.87999899	8.98464900
166.91999899	-7.18405700
166.95999899	-28.74844000
166.99999899	-30.54292000
167.03999898	-37.73308000
167.07999898	-57.50298000
167.11999898	-77.26676000
167.15999898	-89.84650000
167.19999898	-95.23605000
167.23999898	-97.03055000
167.27999898	-104.22070000
167.31999898	-95.23605000
167.35999898	-88.04590000
167.39999898	-79.06125000
167.43999898	-75.47227000
167.47999898	-70.07660000
167.51999898	-66.48762000
167.55999898	-66.48762000
167.59999898	-64.68703000
167.63999898	-62.89254000
167.67999898	-64.68703000
167.71999898	-66.48762000
167.75999898	-66.48762000
167.79999898	-64.68703000
167.83999898	-62.89254000
167.87999898	-61.09195000
167.91999898	-57.50298000
167.95999898	-50.31281000
167.99999898	-41.32816000
168.03999898	-34.13800000
168.07999898	-25.15336000
168.11999898	-16.16870000
168.15999898	-8.98464900
168.19999898	-1.79448800
168.23999898	7.18405700
168.27999898	19.76379000
168.31999898	26.95395000
168.35999898	37.73308000
168.39999898	50.31281000
168.43999898	61.09195000
168.47999898	73.67168000
168.51999898	89.84650000
168.55999898	106.01520000
168.59999898	120.39550000
168.63999898	127.57960000
168.67999897	136.56420000
168.71999897	138.36480000
168.75999897	136.56420000
168.79999897	127.57960000
168.83999897	118.59490000
168.87999897	107.81580000
168.91999897	97.03055000
168.95999897	82.65633000
168.99999897	70.07660000
169.03999897	57.50298000
169.07999897	46.71774000
169.11999897	34.13800000
169.15999897	25.15336000
169.19999897	14.37422000
169.23999897	5.38956800
169.27999897	-7.18405700
169.31999897	-17.96930000
169.35999897	-30.54292000
169.39999897	-44.92325000
169.43999897	-59.29746000
169.47999897	-73.67168000
169.51999897	-86.25141000
169.55999897	-95.23605000
169.59999897	-102.42620000
169.63999897	-98.83114000
169.67999897	-95.23605000
169.71999897	-86.25141000
169.75999897	-79.06125000
169.79999897	-71.87719000
169.83999897	-70.07660000
169.87999897	-64.68703000
169.91999897	-62.89254000
169.95999897	-62.89254000
169.99999897	-61.09195000
170.03999897	-61.09195000
170.07999897	-61.09195000
170.11999897	-62.89254000
170.15999897	-62.89254000
170.19999897	-64.68703000
170.23999897	-59.29746000
170.27999897	-55.70238000
170.31999896	-48.51222000
170.35999896	-41.32816000
170.39999896	-35.93859000
170.43999896	-26.95395000
170.47999896	-19.76379000
170.51999896	-10.77914000
170.55999896	-3.58897700
170.59999896	5.38956800
170.63999896	14.37422000
170.67999896	26.95395000
170.71999896	35.93859000
170.75999896	50.31281000
170.79999896	62.89254000
170.83999896	77.26676000
170.87999896	93.44157000
170.91999896	109.61030000
170.95999896	123.99060000
170.99999896	134.76970000
171.03999896	141.95990000
171.07999896	141.95990000
171.11999896	136.56420000
171.15999896	129.38020000
171.19999896	120.39550000
171.23999896	106.01520000
171.27999896	95.23605000
171.31999896	80.86184000
171.35999896	68.28211000
171.39999896	55.70238000
171.43999896	43.12265000
171.47999896	32.34352000
171.51999896	21.55827000
171.55999896	12.57363000
171.59999896	1.79448800
171.63999896	-7.18405700
171.67999896	-19.76379000
171.71999896	-32.34352000
171.75999896	-46.71774000
171.79999896	-66.48762000
171.83999896	-77.26676000
171.87999896	-91.64098000
171.91999896	-97.03055000
171.95999895	-100.62560000
171.99999895	-102.42620000
172.03999895	-98.83114000
172.07999895	-88.04590000
172.11999895	-79.06125000
172.15999895	-71.87719000
172.19999895	-66.48762000
172.23999895	-62.89254000
172.27999895	-61.09195000
172.31999895	-59.29746000
172.35999895	-59.29746000
172.39999895	-61.09195000
172.43999895	-62.89254000
172.47999895	-64.68703000
172.51999895	-64.68703000
172.55999895	-64.68703000
172.59999895	-61.09195000
172.63999895	-57.50298000
172.67999895	-50.31281000
172.71999895	-41.32816000
172.75999895	-34.13800000
172.79999895	-25.15336000
172.83999895	-16.16870000
172.87999895	-7.18405700
172.91999895	0.00000000
172.95999895	8.98464900
172.99999895	21.55827000
173.03999895	35.93859000
173.07999895	46.71774000
173.11999895	52.10730000
173.15999895	62.89254000
173.19999895	79.06125000
173.23999895	93.44157000
173.27999895	109.61030000
173.31999895	120.39550000
173.35999895	129.38020000
173.39999895	136.56420000
173.43999895	136.56420000
173.47999895	131.17470000
173.51999895	122.19000000
173.55999895	113.20540000
173.59999894	102.42620000
173.63999894	91.64098000
173.67999894	79.06125000
173.71999894	64.68703000
173.75999894	52.10730000
173.79999894	41.32816000
173.83999894	28.74844000
173.87999894	17.96930000
173.91999894	8.98464900
173.95999894	0.00000000
173.99999894	-10.77914000
174.03999894	-23.35887000
174.07999894	-37.73308000
174.11999894	-52.10730000
174.15999894	-66.48762000
174.19999894	-80.86184000
174.23999894	-91.64098000
174.27999894	-100.62560000
174.31999894	-102.42620000
174.35999894	-102.42620000
174.39999894	-93.44157000
174.43999894	-84.45692000
174.47999894	-75.47227000
174.51999894	-71.87719000
174.55999894	-62.89254000
174.59999894	-61.09195000
174.63999894	-59.29746000
174.67999894	-59.29746000
174.71999894	-59.29746000
174.75999894	-59.29746000
174.79999894	-62.89254000
174.83999894	-64.68703000
174.87999894	-64.68703000
174.91999894	-62.89254000
174.95999894	-61.09195000
174.99999894	-55.70238000
175.03999894	-48.51222000
175.07999894	-41.32816000
175.11999894	-32.34352000
175.15999894	-23.35887000
175.19999894	-14.37422000
175.23999893	-5.38956800
175.27999893	3.58897700
175.31999893	14.37422000
175.35999893	25.15336000
175.39999893	34.13800000
175.43999893	46.71774000
175.47999893	57.50298000
175.51999893	70.07660000
175.55999893	82.65633000
175.59999893	98.83114000
175.63999893	113.20540000
175.67999893	127.57960000
175.71999893	134.76970000
175.75999893	136.56420000
175.79999893	134.76970000
175.83999893	129.38020000
175.87999893	120.39550000
175.91999893	109.61030000
175.95999893	98.83114000
175.99999893	86.25141000
176.03999893	73.67168000
176.07999893	59.29746000
176.11999893	48.51222000
176.15999893	35.93859000
176.19999893	25.15336000
176.23999893	14.37422000
176.27999893	5.38956800
176.31999893	-3.58897700
176.35999893	-16.16870000
176.39999893	-28.74844000
176.43999893	-43.12265000
176.47999893	-57.50298000
176.51999893	-71.87719000
176.55999893	-84.45692000
176.59999893	-93.44157000
176.63999893	-97.03055000
176.67999893	-95.23605000
176.71999893	-86.25141000
176.75999893	-88.04590000
176.79999893	-89.84650000
176.83999893	-73.67168000
176.87999893	-61.09195000
176.91999892	-64.68703000
176.95999892	-66.48762000
176.99999892	-64.68703000
177.03999892	-61.09195000
177.07999892	-61.09195000
177.11999892	-64.68703000
177.15999892	-64.68703000
177.19999892	-62.89254000
177.23999892	-62.89254000
177.27999892	-61.09195000
177.31999892	-55.70238000
177.35999892	-50.31281000
177.39999892	-43.12265000
177.43999892	-35.93859000
177.47999892	-26.95395000
177.51999892	-17.96930000
177.55999892	-10.77914000
177.59999892	-1.79448800
177.63999892	8.98464900
177.67999892	19.76379000
177.71999892	28.74844000
177.75999892	39.52757000
177.79999892	52.10730000
177.83999892	62.89254000
177.87999892	75.47227000
177.91999892	89.84650000
177.95999892	104.22070000
177.99999892	116.80040000
178.03999892	129.38020000
178.07999892	136.56420000
178.11999892	134.76970000
178.15999892	132.97520000
178.19999892	127.57960000
178.23999892	116.80040000
178.27999892	106.01520000
178.31999892	93.44157000
178.35999892	82.65633000
178.39999892	68.28211000
178.43999892	55.70238000
178.47999892	43.12265000
178.51999892	32.34352000
178.55999891	21.55827000
178.59999891	12.57363000
178.63999891	1.79448800
178.67999891	-8.98464900
178.71999891	-19.76379000
178.75999891	-34.13800000
178.79999891	-48.51222000
178.83999891	-61.09195000
178.87999891	-77.26676000
178.91999891	-88.04590000
178.95999891	-97.03055000
178.99999891	-100.62560000
179.03999891	-102.42620000
179.07999891	-95.23605000
179.11999891	-89.84650000
179.15999891	-82.65633000
179.19999891	-79.06125000
179.23999891	-71.87719000
179.27999891	-68.28211000
179.31999891	-64.68703000
179.35999891	-64.68703000
179.39999891	-64.68703000
179.43999891	-64.68703000
179.47999891	-64.68703000
179.51999891	-66.48762000
179.55999891	-64.68703000
179.59999891	-64.68703000
179.63999891	-61.09195000
179.67999891	-55.70238000
179.71999891	-48.51222000
179.75999891	-39.52757000
179.79999891	-32.34352000
179.83999891	-23.35887000
179.87999891	-14.37422000
179.91999891	-5.38956800
179.95999891	3.58897700
179.99999891	12.57363000
180.03999891	23.35887000
180.07999891	32.34352000
180.11999891	43.12265000
180.15999891	53.90789000
180.19999890	64.68703000
180.23999890	79.06125000
180.27999890	89.84650000
180.31999890	104.22070000
180.35999890	118.59490000
180.39999890	129.38020000
180.43999890	131.17470000
180.47999890	132.97520000
180.51999890	129.38020000
180.55999890	122.19000000
180.59999890	115.00600000
180.63999890	102.42620000
180.67999890	91.64098000
180.71999890	79.06125000
180.75999890	64.68703000
180.79999890	53.90789000
180.83999890	41.32816000
180.87999890	30.54292000
180.91999890	19.76379000
180.95999890	10.77914000
180.99999890	0.00000000
181.03999890	-10.77914000
181.07999890	-23.35887000
181.11999890	-35.93859000
181.15999890	-50.31281000
181.19999890	-64.68703000
181.23999890	-79.06125000
181.27999890	-89.84650000
181.31999890	-95.23605000
181.35999890	-97.03055000
181.39999890	-93.44157000
181.43999890	-86.25141000
181.47999890	-79.06125000
181.51999890	-71.87719000
181.55999890	-68.28211000
181.59999890	-64.68703000
181.63999890	-64.68703000
181.67999890	-64.68703000
181.71999890	-62.89254000
181.75999890	-59.29746000
181.79999890	-61.09195000
181.83999889	-62.89254000
181.87999889	-64.68703000
181.91999889	-64.68703000
181.95999889	-62.89254000
181.99999889	-59.29746000
182.03999889	-53.90789000
182.07999889	-46.71774000
182.11999889	-39.52757000
182.15999889	-30.54292000
182.19999889	-23.35887000
182.23999889	-16.16870000
182.27999889	-8.98464900
182.31999889	0.00000000
182.35999889	10.77914000
182.39999889	21.55827000
182.43999889	34.13800000
182.47999889	44.92325000
182.51999889	55.70238000
182.55999889	71.87719000
182.59999889	84.45692000
182.63999889	100.62560000
182.67999889	115.00600000
182.71999889	127.57960000
182.75999889	136.56420000
182.79999889	141.95990000
182.83999889	140.15930000
182.87999889	134.76970000
182.91999889	125.78510000
182.95999889	115.00600000
182.99999889	102.42620000
183.03999889	89.84650000
183.07999889	77.26676000
183.11999889	62.89254000
183.15999889	50.31281000
183.19999889	39.52757000
183.23999889	28.74844000
183.27999889	17.96930000
183.31999889	7.18405700
183.35999889	-3.58897700
183.39999889	-12.57363000
183.43999889	-23.35887000
183.47999888	-34.13800000
183.51999888	-53.90789000
183.55999888	-68.28211000
183.59999888	-80.86184000
183.63999888	-89.84650000
183.67999888	-97.03055000
183.71999888	-102.42620000
183.75999888	-95.23605000
183.79999888	-86.25141000
183.83999888	-77.26676000
183.87999888	-71.87719000
183.91999888	-68.28211000
183.95999888	-64.68703000
183.99999888	-61.09195000
184.03999888	-59.29746000
184.07999888	-59.29746000
184.11999888	-61.09195000
184.15999888	-62.89254000
184.19999888	-62.89254000
184.23999888	-62.89254000
184.27999888	-64.68703000
184.31999888	-61.09195000
184.35999888	-57.50298000
184.39999888	-52.10730000
184.43999888	-43.12265000
184.47999888	-35.93859000
184.51999888	-25.15336000
184.55999888	-16.16870000
184.59999888	-8.98464900
184.63999888	0.00000000
184.67999888	7.18405700
184.71999888	19.76379000
184.75999888	28.74844000
184.79999888	41.32816000
184.83999888	50.31281000
184.87999888	61.09195000
184.91999888	75.47227000
184.95999888	88.04590000
184.99999888	100.62560000
185.03999888	116.80040000
185.07999888	127.57960000
185.11999887	134.76970000
185.15999887	136.56420000
185.19999887	134.76970000
185.23999887	129.38020000
185.27999887	120.39550000
185.31999887	109.61030000
185.35999887	98.83114000
185.39999887	86.25141000
185.43999887	71.87719000
185.47999887	57.50298000
185.51999887	46.71774000
185.55999887	34.13800000
185.59999887	23.35887000
185.63999887	12.57363000
185.67999887	3.58897700
185.71999887	-7.18405700
185.75999887	-19.76379000
185.79999887	-32.34352000
185.83999887	-44.92325000
185.87999887	-61.09195000
185.91999887	-73.67168000
185.95999887	-86.25141000
185.99999887	-95.23605000
186.03999887	-102.42620000
186.07999887	-102.42620000
186.11999887	-100.62560000
186.15999887	-89.84650000
186.19999887	-82.65633000
186.23999887	-71.87719000
186.27999887	-68.28211000
186.31999887	-62.89254000
186.35999887	-59.29746000
186.39999887	-59.29746000
186.43999887	-59.29746000
186.47999887	-59.29746000
186.51999887	-61.09195000
186.55999887	-59.29746000
186.59999887	-66.48762000
186.63999887	-73.67168000
186.67999887	-59.29746000
186.71999887	-50.31281000
186.75999886	-50.31281000
186.79999886	-44.92325000
186.83999886	-37.73308000
186.87999886	-25.15336000
186.91999886	-14.37422000
186.95999886	-8.98464900
186.99999886	0.00000000
187.03999886	10.77914000
187.07999886	19.76379000
187.11999886	28.74844000
187.15999886	41.32816000
187.19999886	52.10730000
187.23999886	59.29746000
187.27999886	70.07660000
187.31999886	77.26676000
187.35999886	86.25141000
187.39999886	98.83114000
187.43999886	109.61030000
187.47999886	127.57960000
187.51999886	141.95990000
187.55999886	150.94450000
187.59999886	156.33410000
187.63999886	158.12860000
187.67999886	147.34950000
187.71999886	129.38020000
187.75999886	104.22070000
187.79999886	79.06125000
187.83999886	53.90789000
187.87999886	32.34352000
187.91999886	14.37422000
187.95999886	1.79448800
187.99999886	-7.18405700
188.03999886	-14.37422000
188.07999886	-21.55827000
188.11999886	-34.13800000
188.15999886	-44.92325000
188.19999886	-59.29746000
188.23999886	-71.87719000
188.27999886	-82.65633000
188.31999886	-93.44157000
188.35999886	-100.62560000
188.39999886	-100.62560000
188.43999885	-93.44157000
188.47999885	-88.04590000
188.51999885	-79.06125000
188.55999885	-71.87719000
188.59999885	-61.09195000
188.63999885	-57.50298000
188.67999885	-53.90789000
188.71999885	-52.10730000
188.75999885	-55.70238000
188.79999885	-59.29746000
188.83999885	-66.48762000
188.87999885	-71.87719000
188.91999885	-73.67168000
188.95999885	-77.26676000
188.99999885	-73.67168000
189.03999885	-66.48762000
189.07999885	-57.50298000
189.11999885	-48.51222000
189.15999885	-37.73308000
189.19999885	-28.74844000
189.23999885	-21.55827000
189.27999885	-12.57363000
189.31999885	-5.38956800
189.35999885	3.58897700
189.39999885	12.57363000
189.43999885	21.55827000
189.47999885	34.13800000
189.51999885	48.51222000
189.55999885	59.29746000
189.59999885	71.87719000
189.63999885	86.25141000
189.67999885	98.83114000
189.71999885	111.41090000
189.75999885	122.19000000
189.79999885	127.57960000
189.83999885	131.17470000
189.87999885	129.38020000
189.91999885	125.78510000
189.95999885	118.59490000
189.99999885	109.61030000
190.03999885	98.83114000
190.07999884	88.04590000
190.11999884	77.26676000
190.15999884	62.89254000
190.19999884	52.10730000
190.23999884	43.12265000
190.27999884	32.34352000
190.31999884	21.55827000
190.35999884	10.77914000
190.39999884	0.00000000
190.43999884	-10.77914000
190.47999884	-21.55827000
190.51999884	-35.93859000
190.55999884	-50.31281000
190.59999884	-62.89254000
190.63999884	-77.26676000
190.67999884	-88.04590000
190.71999884	-93.44157000
190.75999884	-98.83114000
190.79999884	-93.44157000
190.83999884	-89.84650000
190.87999884	-84.45692000
190.91999884	-80.86184000
190.95999884	-73.67168000
190.99999884	-70.07660000
191.03999884	-66.48762000
191.07999884	-64.68703000
191.11999884	-61.09195000
191.15999884	-61.09195000
191.19999884	-61.09195000
191.23999884	-62.89254000
191.27999884	-64.68703000
191.31999884	-64.68703000
191.35999884	-61.09195000
191.39999884	-57.50298000
191.43999884	-52.10730000
191.47999884	-48.51222000
191.51999884	-37.73308000
191.55999884	-32.34352000
191.59999884	-21.55827000
191.63999884	-12.57363000
191.67999884	-5.38956800
191.71999883	1.79448800
191.75999883	12.57363000
191.79999883	23.35887000
191.83999883	34.13800000
191.87999883	44.92325000
191.91999883	57.50298000
191.95999883	68.28211000
191.99999883	82.65633000
192.03999883	95.23605000
192.07999883	111.41090000
192.11999883	122.19000000
192.15999883	131.17470000
192.19999883	136.56420000
192.23999883	136.56420000
192.27999883	132.97520000
192.31999883	123.99060000
192.35999883	115.00600000
192.39999883	102.42620000
192.43999883	89.84650000
192.47999883	77.26676000
192.51999883	62.89254000
192.55999883	52.10730000
192.59999883	39.52757000
192.63999883	28.74844000
192.67999883	17.96930000
192.71999883	7.18405700
192.75999883	-1.79448800
192.79999883	-14.37422000
192.83999883	-26.95395000
192.87999883	-39.52757000
192.91999883	-53.90789000
192.95999883	-68.28211000
192.99999883	-80.86184000
193.03999883	-89.84650000
193.07999883	-93.44157000
193.11999883	-98.83114000
193.15999883	-98.83114000
193.19999883	-88.04590000
193.23999883	-77.26676000
193.27999883	-68.28211000
193.31999883	-64.68703000
193.35999882	-64.68703000
193.39999882	-59.29746000
193.43999882	-59.29746000
193.47999882	-59.29746000
193.51999882	-61.09195000
193.55999882	-62.89254000
193.59999882	-64.68703000
193.63999882	-64.68703000
193.67999882	-64.68703000
193.71999882	-62.89254000
193.75999882	-59.29746000
193.79999882	-52.10730000
193.83999882	-44.92325000
193.87999882	-35.93859000
193.91999882	-28.74844000
193.95999882	-21.55827000
193.99999882	-12.57363000
194.03999882	-3.58897700
194.07999882	5.38956800
194.11999882	17.96930000
194.15999882	28.74844000
194.19999882	39.52757000
194.23999882	50.31281000
194.27999882	61.09195000
194.31999882	75.47227000
194.35999882	89.84650000
194.39999882	102.42620000
194.43999882	118.59490000
194.47999882	129.38020000
194.51999882	136.56420000
194.55999882	138.36480000
194.59999882	134.76970000
194.63999882	129.38020000
194.67999882	120.39550000
194.71999882	109.61030000
194.75999882	97.03055000
194.79999882	84.45692000
194.83999882	71.87719000
194.87999882	59.29746000
194.91999882	46.71774000
194.95999882	35.93859000
194.99999881	25.15336000
195.03999881	14.37422000
195.07999881	3.58897700
195.11999881	-7.18405700
195.15999881	-17.96930000
195.19999881	-32.34352000
195.23999881	-44.92325000
195.27999881	-61.09195000
195.31999881	-73.67168000
195.35999881	-86.25141000
195.39999881	-93.44157000
195.43999881	-100.62560000
195.47999881	-98.83114000
195.51999881	-93.44157000
195.55999881	-86.25141000
195.59999881	-79.06125000
195.63999881	-71.87719000
195.67999881	-64.68703000
195.71999881	-59.29746000
195.75999881	-59.29746000
195.79999881	-57.50298000
195.83999881	-57.50298000
195.87999881	-57.50298000
195.91999881	-61.09195000
195.95999881	-62.89254000
195.99999881	-62.89254000
196.03999881	-64.68703000
196.07999881	-59.29746000
196.11999881	-55.70238000
196.15999881	-50.31281000
196.19999881	-43.12265000
196.23999881	-32.34352000
196.27999881	-25.15336000
196.31999881	-14.37422000
196.35999881	-7.18405700
196.39999881	3.58897700
196.43999881	14.37422000
196.47999881	10.77914000
196.51999881	28.74844000
196.55999881	52.10730000
196.59999881	62.89254000
196.63999880	68.28211000
196.67999880	79.06125000
196.71999880	97.03055000
196.75999880	115.00600000
196.79999880	123.99060000
196.83999880	134.76970000
196.87999880	141.95990000
196.91999880	141.95990000
196.95999880	134.76970000
196.99999880	127.57960000
197.03999880	116.80040000
197.07999880	102.42620000
197.11999880	89.84650000
197.15999880	77.26676000
197.19999880	64.68703000
197.23999880	50.31281000
197.27999880	37.73308000
197.31999880	26.95395000
197.35999880	17.96930000
197.39999880	8.98464900
197.43999880	-1.79448800
197.47999880	-10.77914000
197.51999880	-26.95395000
197.55999880	-39.52757000
197.59999880	-53.90789000
197.63999880	-68.28211000
197.67999880	-80.86184000
197.71999880	-91.64098000
197.75999880	-100.62560000
197.79999880	-100.62560000
197.83999880	-100.62560000
197.87999880	-88.04590000
197.91999880	-80.86184000
197.95999880	-73.67168000
197.99999880	-66.48762000
198.03999880	-64.68703000
198.07999880	-62.89254000
198.11999880	-59.29746000
198.15999880	-61.09195000
198.19999880	-61.09195000
198.23999880	-61.09195000
198.27999879	-62.89254000
198.31999879	-62.89254000
198.35999879	-64.68703000
198.39999879	-62.89254000
198.43999879	-57.50298000
198.47999879	-52.10730000
198.51999879	-44.92325000
198.55999879	-35.93859000
198.59999879	-28.74844000
198.63999879	-19.76379000
198.67999879	-10.77914000
198.71999879	-3.58897700
198.75999879	7.18405700
198.79999879	17.96930000
198.83999879	28.74844000
198.87999879	39.52757000
198.91999879	50.31281000
198.95999879	61.09195000
198.99999879	75.47227000
199.03999879	89.84650000
199.07999879	102.42620000
199.11999879	116.80040000
199.15999879	129.38020000
199.19999879	136.56420000
199.23999879	138.36480000
199.27999879	134.76970000
199.31999879	129.38020000
199.35999879	120.39550000
199.39999879	109.61030000
199.43999879	97.03055000
199.47999879	84.45692000
199.51999879	71.87719000
199.55999879	57.50298000
199.59999879	46.71774000
199.63999879	34.13800000
199.67999879	23.35887000
199.71999879	14.37422000
199.75999879	3.58897700
199.79999879	-7.18405700
199.83999879	-17.96930000
199.87999879	-30.54292000
199.91999878	-44.92325000
199.95999878	-61.09195000
199.99999878	-73.67168000
200.03999878	-84.45692000
200.07999878	-93.44157000
200.11999878	-91.64098000
