Time	Channel A
(us)	(mV)

0.00000000	37.73308000
0.04000000	14.37422000
0.08000000	-12.57363000
0.12000000	-39.52757000
0.16000000	-66.48762000
0.20000000	-93.44157000
0.24000000	-118.59490000
0.28000000	-136.56420000
0.32000000	-147.34950000
0.36000000	-145.54890000
0.40000000	-129.38020000
0.44000000	-104.22070000
0.48000000	-79.06125000
0.52000000	-68.28211000
0.56000000	-66.48762000
0.60000000	-64.68703000
0.64000000	-66.48762000
0.68000000	-70.07660000
0.72000000	-73.67168000
0.76000000	-77.26676000
0.80000000	-80.86184000
0.83999999	-86.25141000
0.87999999	-89.84650000
0.91999999	-91.64098000
0.95999999	-89.84650000
0.99999999	-86.25141000
1.03999999	-73.67168000
1.07999999	-59.29746000
1.11999999	-50.31281000
1.15999999	-43.12265000
1.19999999	-35.93859000
1.23999999	-30.54292000
1.27999999	-25.15336000
1.31999999	-17.96930000
1.35999999	-8.98464900
1.39999999	5.38956800
1.43999999	19.76379000
1.47999999	35.93859000
1.51999999	55.70238000
1.55999999	77.26676000
1.59999999	98.83114000
1.63999999	120.39550000
1.67999999	141.95990000
1.71999999	150.94450000
1.75999999	163.51820000
1.79999999	154.53350000
1.83999999	143.75440000
1.87999999	129.38020000
1.91999999	125.78510000
1.95999999	122.19000000
1.99999999	107.81580000
2.03999999	93.44157000
2.07999999	102.42620000
2.11999999	106.01520000
2.15999999	97.03055000
2.19999999	89.84650000
2.23999999	86.25141000
2.27999999	84.45692000
2.31999999	77.26676000
2.35999999	59.29746000
2.39999999	35.93859000
2.43999999	12.57363000
2.47999998	-17.96930000
2.51999998	-46.71774000
2.55999998	-73.67168000
2.59999998	-102.42620000
2.63999998	-127.57960000
2.67999998	-141.95990000
2.71999998	-152.73900000
2.75999998	-141.95990000
2.79999998	-122.19000000
2.83999998	-100.62560000
2.87999998	-84.45692000
2.91999998	-77.26676000
2.95999998	-70.07660000
2.99999998	-68.28211000
3.03999998	-68.28211000
3.07999998	-73.67168000
3.11999998	-75.47227000
3.15999998	-79.06125000
3.19999998	-82.65633000
3.23999998	-86.25141000
3.27999998	-89.84650000
3.31999998	-89.84650000
3.35999998	-86.25141000
3.39999998	-77.26676000
3.43999998	-64.68703000
3.47999998	-52.10730000
3.51999998	-43.12265000
3.55999998	-35.93859000
3.59999998	-28.74844000
3.63999998	-21.55827000
3.67999998	-19.76379000
3.71999998	-10.77914000
3.75999998	0.00000000
3.79999998	12.57363000
3.83999998	28.74844000
3.87999998	46.71774000
3.91999998	64.68703000
3.95999998	82.65633000
3.99999998	102.42620000
4.03999998	123.99060000
4.07999998	141.95990000
4.11999997	150.94450000
4.15999997	156.33410000
4.19999997	150.94450000
4.23999997	140.15930000
4.27999997	129.38020000
4.31999997	122.19000000
4.35999997	116.80040000
4.39999997	107.81580000
4.43999997	106.01520000
4.47999997	100.62560000
4.51999997	97.03055000
4.55999997	91.64098000
4.59999997	89.84650000
4.63999997	84.45692000
4.67999997	75.47227000
4.71999997	64.68703000
4.75999997	48.51222000
4.79999997	25.15336000
4.83999997	-1.79448800
4.87999997	-30.54292000
4.91999997	-59.29746000
4.95999997	-86.25141000
4.99999997	-111.41090000
5.03999997	-132.97520000
5.07999997	-143.75440000
5.11999997	-150.94450000
5.15999997	-134.76970000
5.19999997	-115.00600000
5.23999997	-95.23605000
5.27999997	-88.04590000
5.31999997	-77.26676000
5.35999997	-71.87719000
5.39999997	-71.87719000
5.43999997	-73.67168000
5.47999997	-77.26676000
5.51999997	-79.06125000
5.55999997	-82.65633000
5.59999997	-88.04590000
5.63999997	-89.84650000
5.67999997	-91.64098000
5.71999997	-89.84650000
5.75999996	-86.25141000
5.79999996	-73.67168000
5.83999996	-62.89254000
5.87999996	-50.31281000
5.91999996	-41.32816000
5.95999996	-34.13800000
5.99999996	-26.95395000
6.03999996	-23.35887000
6.07999996	-16.16870000
6.11999996	-7.18405700
6.15999996	5.38956800
6.19999996	17.96930000
6.23999996	35.93859000
6.27999996	53.90789000
6.31999996	71.87719000
6.35999996	93.44157000
6.39999996	113.20540000
6.43999996	131.17470000
6.47999996	145.54890000
6.51999996	156.33410000
6.55999996	154.53350000
6.59999996	143.75440000
6.63999996	132.97520000
6.67999996	125.78510000
6.71999996	120.39550000
6.75999996	115.00600000
6.79999996	107.81580000
6.83999996	100.62560000
6.87999996	93.44157000
6.91999996	95.23605000
6.95999996	93.44157000
6.99999996	98.83114000
7.03999996	98.83114000
7.07999996	91.64098000
7.11999996	86.25141000
7.15999996	70.07660000
7.19999996	34.13800000
7.23999996	-8.98464900
7.27999996	-46.71774000
7.31999996	-86.25141000
7.35999996	-122.19000000
7.39999996	-158.12860000
7.43999995	-174.30340000
7.47999995	-174.30340000
7.51999995	-152.73900000
7.55999995	-127.57960000
7.59999995	-97.03055000
7.63999995	-75.47227000
7.67999995	-59.29746000
7.71999995	-50.31281000
7.75999995	-50.31281000
7.79999995	-59.29746000
7.83999995	-62.89254000
7.87999995	-64.68703000
7.91999995	-66.48762000
7.95999995	-73.67168000
7.99999995	-80.86184000
8.03999995	-86.25141000
8.07999995	-86.25141000
8.11999995	-82.65633000
8.15999995	-79.06125000
8.19999995	-70.07660000
8.23999995	-61.09195000
8.27999995	-52.10730000
8.31999995	-50.31281000
8.35999995	-43.12265000
8.39999995	-41.32816000
8.43999995	-32.34352000
8.47999995	-19.76379000
8.51999995	-8.98464900
8.55999995	3.58897700
8.59999995	25.15336000
8.63999995	48.51222000
8.67999995	70.07660000
8.71999995	89.84650000
8.75999995	107.81580000
8.79999995	127.57960000
8.83999995	141.95990000
8.87999995	150.94450000
8.91999995	156.33410000
8.95999995	147.34950000
8.99999995	136.56420000
9.03999995	129.38020000
9.07999994	122.19000000
9.11999994	116.80040000
9.15999994	109.61030000
9.19999994	102.42620000
9.23999994	98.83114000
9.27999994	93.44157000
9.31999994	88.04590000
9.35999994	86.25141000
9.39999994	86.25141000
9.43999994	82.65633000
9.47999994	77.26676000
9.51999994	64.68703000
9.55999994	48.51222000
9.59999994	23.35887000
9.63999994	-5.38956800
9.67999994	-32.34352000
9.71999994	-62.89254000
9.75999994	-91.64098000
9.79999994	-116.80040000
9.83999994	-136.56420000
9.87999994	-149.14400000
9.91999994	-147.34950000
9.95999994	-129.38020000
9.99999994	-111.41090000
10.03999994	-91.64098000
10.07999994	-86.25141000
10.11999994	-79.06125000
10.15999994	-73.67168000
10.19999994	-73.67168000
10.23999994	-79.06125000
10.27999994	-80.86184000
10.31999994	-82.65633000
10.35999994	-88.04590000
10.39999994	-91.64098000
10.43999994	-91.64098000
10.47999994	-91.64098000
10.51999994	-88.04590000
10.55999994	-79.06125000
10.59999994	-64.68703000
10.63999994	-53.90789000
10.67999994	-43.12265000
10.71999993	-34.13800000
10.75999993	-30.54292000
10.79999993	-26.95395000
10.83999993	-23.35887000
10.87999993	-14.37422000
10.91999993	-3.58897700
10.95999993	7.18405700
10.99999993	23.35887000
11.03999993	41.32816000
11.07999993	59.29746000
11.11999993	75.47227000
11.15999993	95.23605000
11.19999993	116.80040000
11.23999993	132.97520000
11.27999993	145.54890000
11.31999993	156.33410000
11.35999993	150.94450000
11.39999993	141.95990000
11.43999993	129.38020000
11.47999993	122.19000000
11.51999993	116.80040000
11.55999993	113.20540000
11.59999993	107.81580000
11.63999993	104.22070000
11.67999993	98.83114000
11.71999993	95.23605000
11.75999993	91.64098000
11.79999993	91.64098000
11.83999993	75.47227000
11.87999993	59.29746000
11.91999993	55.70238000
11.95999993	41.32816000
11.99999993	10.77914000
12.03999993	-21.55827000
12.07999993	-48.51222000
12.11999993	-70.07660000
12.15999993	-97.03055000
12.19999993	-122.19000000
12.23999993	-134.76970000
12.27999993	-143.75440000
12.31999993	-129.38020000
12.35999992	-115.00600000
12.39999992	-86.25141000
12.43999992	-77.26676000
12.47999992	-71.87719000
12.51999992	-68.28211000
12.55999992	-64.68703000
12.59999992	-68.28211000
12.63999992	-73.67168000
12.67999992	-77.26676000
12.71999992	-79.06125000
12.75999992	-86.25141000
12.79999992	-88.04590000
12.83999992	-91.64098000
12.87999992	-91.64098000
12.91999992	-91.64098000
12.95999992	-82.65633000
12.99999992	-71.87719000
13.03999992	-57.50298000
13.07999992	-46.71774000
13.11999992	-37.73308000
13.15999992	-32.34352000
13.19999992	-25.15336000
13.23999992	-21.55827000
13.27999992	-14.37422000
13.31999992	-5.38956800
13.35999992	14.37422000
13.39999992	26.95395000
13.43999992	44.92325000
13.47999992	64.68703000
13.51999992	84.45692000
13.55999992	102.42620000
13.59999992	125.78510000
13.63999992	141.95990000
13.67999992	150.94450000
13.71999992	156.33410000
13.75999992	149.14400000
13.79999992	138.36480000
13.83999992	127.57960000
13.87999992	122.19000000
13.91999992	115.00600000
13.95999992	111.41090000
13.99999991	106.01520000
14.03999991	102.42620000
14.07999991	98.83114000
14.11999991	97.03055000
14.15999991	93.44157000
14.19999991	91.64098000
14.23999991	86.25141000
14.27999991	75.47227000
14.31999991	61.09195000
14.35999991	39.52757000
14.39999991	12.57363000
14.43999991	-16.16870000
14.47999991	-44.92325000
14.51999991	-73.67168000
14.55999991	-100.62560000
14.59999991	-123.99060000
14.63999991	-140.15930000
14.67999991	-145.54890000
14.71999991	-138.36480000
14.75999991	-122.19000000
14.79999991	-104.22070000
14.83999991	-89.84650000
14.87999991	-80.86184000
14.91999991	-73.67168000
14.95999991	-71.87719000
14.99999991	-73.67168000
15.03999991	-75.47227000
15.07999991	-79.06125000
15.11999991	-80.86184000
15.15999991	-82.65633000
15.19999991	-88.04590000
15.23999991	-88.04590000
15.27999991	-88.04590000
15.31999991	-82.65633000
15.35999991	-73.67168000
15.39999991	-64.68703000
15.43999991	-52.10730000
15.47999991	-43.12265000
15.51999991	-35.93859000
15.55999991	-28.74844000
15.59999991	-23.35887000
15.63999990	-16.16870000
15.67999990	-8.98464900
15.71999990	3.58897700
15.75999990	16.16870000
15.79999990	32.34352000
15.83999990	46.71774000
15.87999990	64.68703000
15.91999990	82.65633000
15.95999990	100.62560000
15.99999990	120.39550000
16.03999990	136.56420000
16.07999990	147.34950000
16.11999990	154.53350000
16.15999990	147.34950000
16.19999990	140.15930000
16.23999990	127.57960000
16.27999990	122.19000000
16.31999990	116.80040000
16.35999990	111.41090000
16.39999990	106.01520000
16.43999990	102.42620000
16.47999990	98.83114000
16.51999990	93.44157000
16.55999990	89.84650000
16.59999990	86.25141000
16.63999990	79.06125000
16.67999990	64.68703000
16.71999990	44.92325000
16.75999990	25.15336000
16.79999990	0.00000000
16.83999990	-25.15336000
16.87999990	-52.10730000
16.91999990	-80.86184000
16.95999990	-107.81580000
16.99999990	-125.78510000
17.03999990	-140.15930000
17.07999990	-140.15930000
17.11999990	-134.76970000
17.15999990	-118.59490000
17.19999990	-102.42620000
17.23999990	-89.84650000
17.27999989	-82.65633000
17.31999989	-77.26676000
17.35999989	-73.67168000
17.39999989	-75.47227000
17.43999989	-79.06125000
17.47999989	-80.86184000
17.51999989	-86.25141000
17.55999989	-88.04590000
17.59999989	-93.44157000
17.63999989	-95.23605000
17.67999989	-95.23605000
17.71999989	-88.04590000
17.75999989	-79.06125000
17.79999989	-66.48762000
17.83999989	-57.50298000
17.87999989	-44.92325000
17.91999989	-37.73308000
17.95999989	-28.74844000
17.99999989	-23.35887000
18.03999989	-14.37422000
18.07999989	-5.38956800
18.11999989	5.38956800
18.15999989	19.76379000
18.19999989	34.13800000
18.23999989	50.31281000
18.27999989	71.87719000
18.31999989	88.04590000
18.35999989	100.62560000
18.39999989	115.00600000
18.43999989	132.97520000
18.47999989	143.75440000
18.51999989	152.73900000
18.55999989	145.54890000
18.59999989	138.36480000
18.63999989	127.57960000
18.67999989	122.19000000
18.71999989	115.00600000
18.75999989	109.61030000
18.79999989	106.01520000
18.83999989	102.42620000
18.87999989	98.83114000
18.91999989	93.44157000
18.95999988	89.84650000
18.99999988	84.45692000
19.03999988	77.26676000
19.07999988	64.68703000
19.11999988	48.51222000
19.15999988	25.15336000
19.19999988	0.00000000
19.23999988	-25.15336000
19.27999988	-52.10730000
19.31999988	-79.06125000
19.35999988	-102.42620000
19.39999988	-123.99060000
19.43999988	-136.56420000
19.47999988	-141.95990000
19.51999988	-132.97520000
19.55999988	-116.80040000
19.59999988	-100.62560000
19.63999988	-89.84650000
19.67999988	-82.65633000
19.71999988	-77.26676000
19.75999988	-75.47227000
19.79999988	-73.67168000
19.83999988	-77.26676000
19.87999988	-77.26676000
19.91999988	-80.86184000
19.95999988	-82.65633000
19.99999988	-86.25141000
20.03999988	-86.25141000
20.07999988	-86.25141000
20.11999988	-82.65633000
20.15999988	-73.67168000
20.19999988	-66.48762000
20.23999988	-57.50298000
20.27999988	-50.31281000
20.31999988	-41.32816000
20.35999988	-37.73308000
20.39999988	-30.54292000
20.43999988	-25.15336000
20.47999988	-14.37422000
20.51999988	-1.79448800
20.55999988	12.57363000
20.59999987	28.74844000
20.63999987	48.51222000
20.67999987	68.28211000
20.71999987	86.25141000
20.75999987	107.81580000
20.79999987	127.57960000
20.83999987	141.95990000
20.87999987	150.94450000
20.91999987	154.53350000
20.95999987	149.14400000
20.99999987	136.56420000
21.03999987	127.57960000
21.07999987	122.19000000
21.11999987	118.59490000
21.15999987	111.41090000
21.19999987	106.01520000
21.23999987	102.42620000
21.27999987	98.83114000
21.31999987	93.44157000
21.35999987	91.64098000
21.39999987	86.25141000
21.43999987	79.06125000
21.47999987	64.68703000
21.51999987	48.51222000
21.55999987	25.15336000
21.59999987	0.00000000
21.63999987	-26.95395000
21.67999987	-66.48762000
21.71999987	-91.64098000
21.75999987	-102.42620000
21.79999987	-122.19000000
21.83999987	-140.15930000
21.87999987	-143.75440000
21.91999987	-134.76970000
21.95999987	-116.80040000
21.99999987	-102.42620000
22.03999987	-93.44157000
22.07999987	-82.65633000
22.11999987	-77.26676000
22.15999987	-75.47227000
22.19999987	-75.47227000
22.23999986	-79.06125000
22.27999986	-80.86184000
22.31999986	-86.25141000
22.35999986	-86.25141000
22.39999986	-88.04590000
22.43999986	-89.84650000
22.47999986	-88.04590000
22.51999986	-82.65633000
22.55999986	-73.67168000
22.59999986	-64.68703000
22.63999986	-55.70238000
22.67999986	-44.92325000
22.71999986	-39.52757000
22.75999986	-32.34352000
22.79999986	-26.95395000
22.83999986	-21.55827000
22.87999986	-10.77914000
22.91999986	1.79448800
22.95999986	14.37422000
22.99999986	32.34352000
23.03999986	48.51222000
23.07999986	66.48762000
23.11999986	84.45692000
23.15999986	102.42620000
23.19999986	122.19000000
23.23999986	141.95990000
23.27999986	149.14400000
23.31999986	154.53350000
23.35999986	149.14400000
23.39999986	136.56420000
23.43999986	123.99060000
23.47999986	122.19000000
23.51999986	115.00600000
23.55999986	107.81580000
23.59999986	102.42620000
23.63999986	100.62560000
23.67999986	97.03055000
23.71999986	91.64098000
23.75999986	86.25141000
23.79999986	80.86184000
23.83999986	73.67168000
23.87999985	61.09195000
23.91999985	43.12265000
23.95999985	21.55827000
23.99999985	-5.38956800
24.03999985	-32.34352000
24.07999985	-57.50298000
24.11999985	-86.25141000
24.15999985	-109.61030000
24.19999985	-127.57960000
24.23999985	-136.56420000
24.27999985	-132.97520000
24.31999985	-122.19000000
24.35999985	-107.81580000
24.39999985	-95.23605000
24.43999985	-84.45692000
24.47999985	-79.06125000
24.51999985	-73.67168000
24.55999985	-73.67168000
24.59999985	-75.47227000
24.63999985	-79.06125000
24.67999985	-80.86184000
24.71999985	-84.45692000
24.75999985	-88.04590000
24.79999985	-89.84650000
24.83999985	-89.84650000
24.87999985	-88.04590000
24.91999985	-80.86184000
24.95999985	-70.07660000
24.99999985	-61.09195000
25.03999985	-50.31281000
25.07999985	-43.12265000
25.11999985	-35.93859000
25.15999985	-30.54292000
25.19999985	-26.95395000
25.23999985	-17.96930000
25.27999985	-8.98464900
25.31999985	1.79448800
25.35999985	17.96930000
25.39999985	35.93859000
25.43999985	53.90789000
25.47999985	73.67168000
25.51999984	91.64098000
25.55999984	111.41090000
25.59999984	129.38020000
25.63999984	145.54890000
25.67999984	154.53350000
25.71999984	154.53350000
25.75999984	147.34950000
25.79999984	132.97520000
25.83999984	125.78510000
25.87999984	120.39550000
25.91999984	115.00600000
25.95999984	107.81580000
25.99999984	104.22070000
26.03999984	100.62560000
26.07999984	98.83114000
26.11999984	95.23605000
26.15999984	93.44157000
26.19999984	86.25141000
26.23999984	79.06125000
26.27999984	64.68703000
26.31999984	46.71774000
26.35999984	23.35887000
26.39999984	-5.38956800
26.43999984	-34.13800000
26.47999984	-61.09195000
26.51999984	-89.84650000
26.55999984	-118.59490000
26.59999984	-136.56420000
26.63999984	-147.34950000
26.67999984	-143.75440000
26.71999984	-129.38020000
26.75999984	-115.00600000
26.79999984	-95.23605000
26.83999984	-84.45692000
26.87999984	-71.87719000
26.91999984	-68.28211000
26.95999984	-70.07660000
26.99999984	-71.87719000
27.03999984	-73.67168000
27.07999984	-77.26676000
27.11999984	-82.65633000
27.15999983	-84.45692000
27.19999983	-86.25141000
27.23999983	-86.25141000
27.27999983	-86.25141000
27.31999983	-79.06125000
27.35999983	-70.07660000
27.39999983	-59.29746000
27.43999983	-50.31281000
27.47999983	-41.32816000
27.51999983	-32.34352000
27.55999983	-28.74844000
27.59999983	-23.35887000
27.63999983	-16.16870000
27.67999983	-7.18405700
27.71999983	3.58897700
27.75999983	19.76379000
27.79999983	34.13800000
27.83999983	53.90789000
27.87999983	73.67168000
27.91999983	93.44157000
27.95999983	115.00600000
27.99999983	134.76970000
28.03999983	147.34950000
28.07999983	163.51820000
28.11999983	158.12860000
28.15999983	145.54890000
28.19999983	129.38020000
28.23999983	123.99060000
28.27999983	120.39550000
28.31999983	113.20540000
28.35999983	106.01520000
28.39999983	100.62560000
28.43999983	98.83114000
28.47999983	93.44157000
28.51999983	91.64098000
28.55999983	86.25141000
28.59999983	82.65633000
28.63999983	73.67168000
28.67999983	61.09195000
28.71999983	41.32816000
28.75999983	14.37422000
28.79999982	-14.37422000
28.83999982	-43.12265000
28.87999982	-70.07660000
28.91999982	-98.83114000
28.95999982	-122.19000000
28.99999982	-138.36480000
29.03999982	-143.75440000
29.07999982	-138.36480000
29.11999982	-122.19000000
29.15999982	-102.42620000
29.19999982	-86.25141000
29.23999982	-75.47227000
29.27999982	-70.07660000
29.31999982	-68.28211000
29.35999982	-79.06125000
29.39999982	-102.42620000
29.43999982	-109.61030000
29.47999982	-98.83114000
29.51999982	-89.84650000
29.55999982	-88.04590000
29.59999982	-77.26676000
29.63999982	-59.29746000
29.67999982	-35.93859000
29.71999982	-21.55827000
29.75999982	-28.74844000
29.79999982	-35.93859000
29.83999982	-35.93859000
29.87999982	-30.54292000
29.91999982	-35.93859000
29.95999982	-44.92325000
29.99999982	-44.92325000
30.03999982	-32.34352000
30.07999982	-12.57363000
30.11999982	0.00000000
30.15999982	10.77914000
30.19999982	26.95395000
30.23999982	50.31281000
30.27999982	75.47227000
30.31999982	95.23605000
30.35999982	115.00600000
30.39999982	132.97520000
30.43999982	149.14400000
30.47999981	163.51820000
30.51999981	154.53350000
30.55999981	143.75440000
30.59999981	132.97520000
30.63999981	132.97520000
30.67999981	131.17470000
30.71999981	125.78510000
30.75999981	118.59490000
30.79999981	107.81580000
30.83999981	100.62560000
30.87999981	93.44157000
30.91999981	86.25141000
30.95999981	77.26676000
30.99999981	68.28211000
31.03999981	59.29746000
31.07999981	48.51222000
31.11999981	28.74844000
31.15999981	5.38956800
31.19999981	-21.55827000
31.23999981	-48.51222000
31.27999981	-73.67168000
31.31999981	-102.42620000
31.35999981	-125.78510000
31.39999981	-140.15930000
31.43999981	-140.15930000
31.47999981	-129.38020000
31.51999981	-120.39550000
31.55999981	-100.62560000
31.59999981	-71.87719000
31.63999981	-59.29746000
31.67999981	-61.09195000
31.71999981	-64.68703000
31.75999981	-70.07660000
31.79999981	-71.87719000
31.83999981	-82.65633000
31.87999981	-88.04590000
31.91999981	-91.64098000
31.95999981	-93.44157000
31.99999981	-97.03055000
32.03999981	-93.44157000
32.07999981	-86.25141000
32.11999980	-79.06125000
32.15999980	-66.48762000
32.19999980	-52.10730000
32.23999980	-41.32816000
32.27999980	-32.34352000
32.31999980	-26.95395000
32.35999980	-19.76379000
32.39999980	-14.37422000
32.43999980	-7.18405700
32.47999980	5.38956800
32.51999980	19.76379000
32.55999980	34.13800000
32.59999980	52.10730000
32.63999980	70.07660000
32.67999980	89.84650000
32.71999980	107.81580000
32.75999980	125.78510000
32.79999980	140.15930000
32.83999980	147.34950000
32.87999980	150.94450000
32.91999980	143.75440000
32.95999980	132.97520000
32.99999980	118.59490000
33.03999980	115.00600000
33.07999980	111.41090000
33.11999980	107.81580000
33.15999980	106.01520000
33.19999980	102.42620000
33.23999980	100.62560000
33.27999980	97.03055000
33.31999980	91.64098000
33.35999980	86.25141000
33.39999980	77.26676000
33.43999980	64.68703000
33.47999980	48.51222000
33.51999980	26.95395000
33.55999980	0.00000000
33.59999980	-28.74844000
33.63999980	-55.70238000
33.67999980	-80.86184000
33.71999980	-107.81580000
33.75999979	-123.99060000
33.79999979	-143.75440000
33.83999979	-141.95990000
33.87999979	-131.17470000
33.91999979	-116.80040000
33.95999979	-102.42620000
33.99999979	-89.84650000
34.03999979	-80.86184000
34.07999979	-75.47227000
34.11999979	-73.67168000
34.15999979	-75.47227000
34.19999979	-75.47227000
34.23999979	-79.06125000
34.27999979	-80.86184000
34.31999979	-84.45692000
34.35999979	-86.25141000
34.39999979	-88.04590000
34.43999979	-88.04590000
34.47999979	-82.65633000
34.51999979	-73.67168000
34.55999979	-64.68703000
34.59999979	-53.90789000
34.63999979	-44.92325000
34.67999979	-37.73308000
34.71999979	-30.54292000
34.75999979	-23.35887000
34.79999979	-17.96930000
34.83999979	-7.18405700
34.87999979	3.58897700
34.91999979	17.96930000
34.95999979	34.13800000
34.99999979	53.90789000
35.03999979	71.87719000
35.07999979	89.84650000
35.11999979	107.81580000
35.15999979	127.57960000
35.19999979	141.95990000
35.23999979	150.94450000
35.27999979	156.33410000
35.31999979	145.54890000
35.35999979	134.76970000
35.39999978	123.99060000
35.43999978	120.39550000
35.47999978	111.41090000
35.51999978	107.81580000
35.55999978	102.42620000
35.59999978	100.62560000
35.63999978	97.03055000
35.67999978	91.64098000
35.71999978	88.04590000
35.75999978	82.65633000
35.79999978	73.67168000
35.83999978	61.09195000
35.87999978	43.12265000
35.91999978	21.55827000
35.95999978	-3.58897700
35.99999978	-32.34352000
36.03999978	-59.29746000
36.07999978	-86.25141000
36.11999978	-109.61030000
36.15999978	-129.38020000
36.19999978	-140.15930000
36.23999978	-138.36480000
36.27999978	-122.19000000
36.31999978	-107.81580000
36.35999978	-89.84650000
36.39999978	-84.45692000
36.43999978	-75.47227000
36.47999978	-71.87719000
36.51999978	-68.28211000
36.55999978	-71.87719000
36.59999978	-77.26676000
36.63999978	-79.06125000
36.67999978	-80.86184000
36.71999978	-86.25141000
36.75999978	-86.25141000
36.79999978	-89.84650000
36.83999978	-86.25141000
36.87999978	-80.86184000
36.91999978	-71.87719000
36.95999978	-61.09195000
36.99999978	-52.10730000
37.03999977	-41.32816000
37.07999977	-34.13800000
37.11999977	-28.74844000
37.15999977	-23.35887000
37.19999977	-16.16870000
37.23999977	-7.18405700
37.27999977	5.38956800
37.31999977	21.55827000
37.35999977	35.93859000
37.39999977	53.90789000
37.43999977	73.67168000
37.47999977	91.64098000
37.51999977	111.41090000
37.55999977	129.38020000
37.59999977	143.75440000
37.63999977	154.53350000
37.67999977	154.53350000
37.71999977	145.54890000
37.75999977	132.97520000
37.79999977	123.99060000
37.83999977	118.59490000
37.87999977	113.20540000
37.91999977	106.01520000
37.95999977	100.62560000
37.99999977	98.83114000
38.03999977	95.23605000
38.07999977	91.64098000
38.11999977	88.04590000
38.15999977	82.65633000
38.19999977	73.67168000
38.23999977	57.50298000
38.27999977	39.52757000
38.31999977	14.37422000
38.35999977	-12.57363000
38.39999977	-39.52757000
38.43999977	-66.48762000
38.47999977	-91.64098000
38.51999977	-113.20540000
38.55999977	-131.17470000
38.59999977	-145.54890000
38.63999977	-134.76970000
38.67999976	-118.59490000
38.71999976	-97.03055000
38.75999976	-88.04590000
38.79999976	-80.86184000
38.83999976	-71.87719000
38.87999976	-68.28211000
38.91999976	-71.87719000
38.95999976	-73.67168000
38.99999976	-77.26676000
39.03999976	-79.06125000
39.07999976	-82.65633000
39.11999976	-86.25141000
39.15999976	-88.04590000
39.19999976	-88.04590000
39.23999976	-84.45692000
39.27999976	-77.26676000
39.31999976	-66.48762000
39.35999976	-55.70238000
39.39999976	-46.71774000
39.43999976	-39.52757000
39.47999976	-32.34352000
39.51999976	-28.74844000
39.55999976	-21.55827000
39.59999976	-10.77914000
39.63999976	0.00000000
39.67999976	12.57363000
39.71999976	28.74844000
39.75999976	44.92325000
39.79999976	62.89254000
39.83999976	80.86184000
39.87999976	100.62560000
39.91999976	116.80040000
39.95999976	132.97520000
39.99999976	145.54890000
40.03999976	154.53350000
40.07999976	150.94450000
40.11999976	140.15930000
40.15999976	127.57960000
40.19999976	120.39550000
40.23999976	115.00600000
40.27999976	109.61030000
40.31999975	104.22070000
40.35999975	100.62560000
40.39999975	98.83114000
40.43999975	93.44157000
40.47999975	89.84650000
40.51999975	84.45692000
40.55999975	77.26676000
40.59999975	64.68703000
40.63999975	48.51222000
40.67999975	26.95395000
40.71999975	3.58897700
40.75999975	-25.15336000
40.79999975	-52.10730000
40.83999975	-79.06125000
40.87999975	-104.22070000
40.91999975	-125.78510000
40.95999975	-136.56420000
40.99999975	-140.15930000
41.03999975	-131.17470000
41.07999975	-107.81580000
41.11999975	-91.64098000
41.15999975	-80.86184000
41.19999975	-73.67168000
41.23999975	-68.28211000
41.27999975	-66.48762000
41.31999975	-66.48762000
41.35999975	-79.06125000
41.39999975	-86.25141000
41.43999975	-75.47227000
41.47999975	-77.26676000
41.51999975	-86.25141000
41.55999975	-91.64098000
41.59999975	-89.84650000
41.63999975	-80.86184000
41.67999975	-71.87719000
41.71999975	-62.89254000
41.75999975	-50.31281000
41.79999975	-41.32816000
41.83999975	-34.13800000
41.87999975	-28.74844000
41.91999975	-23.35887000
41.95999974	-16.16870000
41.99999974	-8.98464900
42.03999974	5.38956800
42.07999974	21.55827000
42.11999974	35.93859000
42.15999974	55.70238000
42.19999974	73.67168000
42.23999974	93.44157000
42.27999974	113.20540000
42.31999974	131.17470000
42.35999974	145.54890000
42.39999974	156.33410000
42.43999974	154.53350000
42.47999974	143.75440000
42.51999974	131.17470000
42.55999974	125.78510000
42.59999974	120.39550000
42.63999974	113.20540000
42.67999974	107.81580000
42.71999974	102.42620000
42.75999974	98.83114000
42.79999974	95.23605000
42.83999974	91.64098000
42.87999974	88.04590000
42.91999974	82.65633000
42.95999974	73.67168000
42.99999974	57.50298000
43.03999974	39.52757000
43.07999974	14.37422000
43.11999974	-12.57363000
43.15999974	-39.52757000
43.19999974	-64.68703000
43.23999974	-91.64098000
43.27999974	-116.80040000
43.31999974	-131.17470000
43.35999974	-143.75440000
43.39999974	-132.97520000
43.43999974	-118.59490000
43.47999974	-98.83114000
43.51999974	-89.84650000
43.55999974	-79.06125000
43.59999974	-73.67168000
43.63999973	-71.87719000
43.67999973	-71.87719000
43.71999973	-71.87719000
43.75999973	-73.67168000
43.79999973	-80.86184000
43.83999973	-82.65633000
43.87999973	-88.04590000
43.91999973	-89.84650000
43.95999973	-93.44157000
43.99999973	-89.84650000
44.03999973	-79.06125000
44.07999973	-66.48762000
44.11999973	-57.50298000
44.15999973	-48.51222000
44.19999973	-41.32816000
44.23999973	-32.34352000
44.27999973	-28.74844000
44.31999973	-17.96930000
44.35999973	-7.18405700
44.39999973	3.58897700
44.43999973	19.76379000
44.47999973	34.13800000
44.51999973	50.31281000
44.55999973	68.28211000
44.59999973	84.45692000
44.63999973	100.62560000
44.67999973	116.80040000
44.71999973	131.17470000
44.75999973	143.75440000
44.79999973	150.94450000
44.83999973	147.34950000
44.87999973	138.36480000
44.91999973	127.57960000
44.95999973	122.19000000
44.99999973	115.00600000
45.03999973	111.41090000
45.07999973	106.01520000
45.11999973	100.62560000
45.15999973	98.83114000
45.19999973	93.44157000
45.23999973	89.84650000
45.27999972	84.45692000
45.31999972	75.47227000
45.35999972	62.89254000
45.39999972	46.71774000
45.43999972	26.95395000
45.47999972	1.79448800
45.51999972	-23.35887000
45.55999972	-50.31281000
45.59999972	-77.26676000
45.63999972	-100.62560000
45.67999972	-122.19000000
45.71999972	-136.56420000
45.75999972	-141.95990000
45.79999972	-131.17470000
45.83999972	-115.00600000
45.87999972	-98.83114000
45.91999972	-89.84650000
45.95999972	-82.65633000
45.99999972	-77.26676000
46.03999972	-75.47227000
46.07999972	-79.06125000
46.11999972	-80.86184000
46.15999972	-80.86184000
46.19999972	-86.25141000
46.23999972	-93.44157000
46.27999972	-89.84650000
46.31999972	-93.44157000
46.35999972	-88.04590000
46.39999972	-82.65633000
46.43999972	-75.47227000
46.47999972	-66.48762000
46.51999972	-55.70238000
46.55999972	-44.92325000
46.59999972	-37.73308000
46.63999972	-32.34352000
46.67999972	-26.95395000
46.71999972	-17.96930000
46.75999972	-8.98464900
46.79999972	3.58897700
46.83999972	17.96930000
46.87999972	34.13800000
46.91999971	52.10730000
46.95999971	70.07660000
46.99999971	88.04590000
47.03999971	106.01520000
47.07999971	123.99060000
47.11999971	140.15930000
47.15999971	149.14400000
47.19999971	156.33410000
47.23999971	147.34950000
47.27999971	136.56420000
47.31999971	123.99060000
47.35999971	120.39550000
47.39999971	115.00600000
47.43999971	109.61030000
47.47999971	104.22070000
47.51999971	100.62560000
47.55999971	98.83114000
47.59999971	93.44157000
47.63999971	88.04590000
47.67999971	82.65633000
47.71999971	73.67168000
47.75999971	61.09195000
47.79999971	41.32816000
47.83999971	19.76379000
47.87999971	-7.18405700
47.91999971	-34.13800000
47.95999971	-61.09195000
47.99999971	-86.25141000
48.03999971	-111.41090000
48.07999971	-129.38020000
48.11999971	-141.95990000
48.15999971	-136.56420000
48.19999971	-129.38020000
48.23999971	-118.59490000
48.27999971	-107.81580000
48.31999971	-91.64098000
48.35999971	-82.65633000
48.39999971	-79.06125000
48.43999971	-79.06125000
48.47999971	-80.86184000
48.51999971	-80.86184000
48.55999970	-82.65633000
48.59999970	-86.25141000
48.63999970	-89.84650000
48.67999970	-91.64098000
48.71999970	-91.64098000
48.75999970	-88.04590000
48.79999970	-80.86184000
48.83999970	-71.87719000
48.87999970	-66.48762000
48.91999970	-53.90789000
48.95999970	-44.92325000
48.99999970	-37.73308000
49.03999970	-32.34352000
49.07999970	-26.95395000
49.11999970	-19.76379000
49.15999970	-8.98464900
49.19999970	1.79448800
49.23999970	17.96930000
49.27999970	34.13800000
49.31999970	50.31281000
49.35999970	70.07660000
49.39999970	86.25141000
49.43999970	106.01520000
49.47999970	122.19000000
49.51999970	140.15930000
49.55999970	149.14400000
49.59999970	156.33410000
49.63999970	145.54890000
49.67999970	136.56420000
49.71999970	123.99060000
49.75999970	118.59490000
49.79999970	113.20540000
49.83999970	107.81580000
49.87999970	102.42620000
49.91999970	100.62560000
49.95999970	97.03055000
49.99999970	89.84650000
50.03999970	86.25141000
50.07999970	79.06125000
50.11999970	70.07660000
50.15999970	57.50298000
50.19999969	39.52757000
50.23999969	17.96930000
50.27999969	-8.98464900
50.31999969	-35.93859000
50.35999969	-61.09195000
50.39999969	-88.04590000
50.43999969	-113.20540000
50.47999969	-129.38020000
50.51999969	-138.36480000
50.55999969	-140.15930000
50.59999969	-120.39550000
50.63999969	-100.62560000
50.67999969	-84.45692000
50.71999969	-79.06125000
50.75999969	-71.87719000
50.79999969	-68.28211000
50.83999969	-70.07660000
50.87999969	-71.87719000
50.91999969	-75.47227000
50.95999969	-79.06125000
50.99999969	-82.65633000
51.03999969	-86.25141000
51.07999969	-88.04590000
51.11999969	-88.04590000
51.15999969	-82.65633000
51.19999969	-86.25141000
51.23999969	-86.25141000
51.27999969	-62.89254000
51.31999969	-46.71774000
51.35999969	-43.12265000
51.39999969	-41.32816000
51.43999969	-35.93859000
51.47999969	-25.15336000
51.51999969	-17.96930000
51.55999969	-8.98464900
51.59999969	5.38956800
51.63999969	21.55827000
51.67999969	39.52757000
51.71999969	57.50298000
51.75999969	79.06125000
51.79999969	98.83114000
51.83999968	115.00600000
51.87999968	132.97520000
51.91999968	147.34950000
51.95999968	156.33410000
51.99999968	152.73900000
52.03999968	143.75440000
52.07999968	131.17470000
52.11999968	127.57960000
52.15999968	118.59490000
52.19999968	113.20540000
52.23999968	107.81580000
52.27999968	104.22070000
52.31999968	100.62560000
52.35999968	98.83114000
52.39999968	93.44157000
52.43999968	89.84650000
52.47999968	84.45692000
52.51999968	73.67168000
52.55999968	59.29746000
52.59999968	41.32816000
52.63999968	16.16870000
52.67999968	-10.77914000
52.71999968	-37.73308000
52.75999968	-66.48762000
52.79999968	-93.44157000
52.83999968	-116.80040000
52.87999968	-134.76970000
52.91999968	-145.54890000
52.95999968	-141.95990000
52.99999968	-129.38020000
53.03999968	-107.81580000
53.07999968	-93.44157000
53.11999968	-86.25141000
53.15999968	-75.47227000
53.19999968	-73.67168000
53.23999968	-77.26676000
53.27999968	-75.47227000
53.31999968	-75.47227000
53.35999968	-79.06125000
53.39999968	-84.45692000
53.43999968	-88.04590000
53.47999967	-88.04590000
53.51999967	-88.04590000
53.55999967	-86.25141000
53.59999967	-80.86184000
53.63999967	-70.07660000
53.67999967	-57.50298000
53.71999967	-50.31281000
53.75999967	-41.32816000
53.79999967	-34.13800000
53.83999967	-28.74844000
53.87999967	-21.55827000
53.91999967	-12.57363000
53.95999967	0.00000000
53.99999967	12.57363000
54.03999967	26.95395000
54.07999967	44.92325000
54.11999967	62.89254000
54.15999967	80.86184000
54.19999967	98.83114000
54.23999967	115.00600000
54.27999967	118.59490000
54.31999967	109.61030000
54.35999967	129.38020000
54.39999967	145.54890000
54.43999967	141.95990000
54.47999967	129.38020000
54.51999967	138.36480000
54.55999967	158.12860000
54.59999967	161.72370000
54.63999967	145.54890000
54.67999967	120.39550000
54.71999967	104.22070000
54.75999967	97.03055000
54.79999967	89.84650000
54.83999967	73.67168000
54.87999967	55.70238000
54.91999967	48.51222000
54.95999967	44.92325000
54.99999967	28.74844000
55.03999967	-3.58897700
55.07999967	-34.13800000
55.11999967	-57.50298000
55.15999966	-79.06125000
55.19999966	-102.42620000
55.23999966	-127.57960000
55.27999966	-140.15930000
55.31999966	-143.75440000
55.35999966	-129.38020000
55.39999966	-107.81580000
55.43999966	-89.84650000
55.47999966	-79.06125000
55.51999966	-64.68703000
55.55999966	-53.90789000
55.59999966	-52.10730000
55.63999966	-55.70238000
55.67999966	-62.89254000
55.71999966	-71.87719000
55.75999966	-77.26676000
55.79999966	-86.25141000
55.83999966	-93.44157000
55.87999966	-100.62560000
55.91999966	-100.62560000
55.95999966	-91.64098000
55.99999966	-79.06125000
56.03999966	-68.28211000
56.07999966	-61.09195000
56.11999966	-46.71774000
56.15999966	-35.93859000
56.19999966	-26.95395000
56.23999966	-25.15336000
56.27999966	-21.55827000
56.31999966	-12.57363000
56.35999966	1.79448800
56.39999966	17.96930000
56.43999966	39.52757000
56.47999966	57.50298000
56.51999966	80.86184000
56.55999966	102.42620000
56.59999966	122.19000000
56.63999966	138.36480000
56.67999966	145.54890000
56.71999966	156.33410000
56.75999966	149.14400000
56.79999965	140.15930000
56.83999965	127.57960000
56.87999965	120.39550000
56.91999965	115.00600000
56.95999965	109.61030000
56.99999965	104.22070000
57.03999965	100.62560000
57.07999965	100.62560000
57.11999965	97.03055000
57.15999965	95.23605000
57.19999965	95.23605000
57.23999965	91.64098000
57.27999965	82.65633000
57.31999965	71.87719000
57.35999965	53.90789000
57.39999965	28.74844000
57.43999965	0.00000000
57.47999965	-28.74844000
57.51999965	-55.70238000
57.55999965	-82.65633000
57.59999965	-109.61030000
57.63999965	-131.17470000
57.67999965	-143.75440000
57.71999965	-150.94450000
57.75999965	-138.36480000
57.79999965	-118.59490000
57.83999965	-93.44157000
57.87999965	-84.45692000
57.91999965	-73.67168000
57.95999965	-73.67168000
57.99999965	-73.67168000
58.03999965	-73.67168000
58.07999965	-71.87719000
58.11999965	-71.87719000
58.15999965	-77.26676000
58.19999965	-84.45692000
58.23999965	-84.45692000
58.27999965	-84.45692000
58.31999965	-86.25141000
58.35999965	-80.86184000
58.39999965	-70.07660000
58.43999964	-57.50298000
58.47999964	-44.92325000
58.51999964	-39.52757000
58.55999964	-32.34352000
58.59999964	-25.15336000
58.63999964	-17.96930000
58.67999964	-12.57363000
58.71999964	-1.79448800
58.75999964	8.98464900
58.79999964	25.15336000
58.83999964	39.52757000
58.87999964	57.50298000
58.91999964	75.47227000
58.95999964	97.03055000
58.99999964	118.59490000
59.03999964	136.56420000
59.07999964	150.94450000
59.11999964	159.92920000
59.15999964	152.73900000
59.19999964	143.75440000
59.23999964	129.38020000
59.27999964	125.78510000
59.31999964	118.59490000
59.35999964	111.41090000
59.39999964	106.01520000
59.43999964	100.62560000
59.47999964	97.03055000
59.51999964	93.44157000
59.55999964	89.84650000
59.59999964	86.25141000
59.63999964	79.06125000
59.67999964	68.28211000
59.71999964	52.10730000
59.75999964	28.74844000
59.79999964	5.38956800
59.83999964	-21.55827000
59.87999964	-50.31281000
59.91999964	-73.67168000
59.95999964	-102.42620000
59.99999964	-123.99060000
60.03999964	-136.56420000
60.07999963	-149.14400000
60.11999963	-136.56420000
60.15999963	-118.59490000
60.19999963	-93.44157000
60.23999963	-82.65633000
60.27999963	-75.47227000
60.31999963	-71.87719000
60.35999963	-68.28211000
60.39999963	-77.26676000
60.43999963	-79.06125000
60.47999963	-84.45692000
60.51999963	-84.45692000
60.55999963	-88.04590000
60.59999963	-91.64098000
60.63999963	-93.44157000
60.67999963	-91.64098000
60.71999963	-88.04590000
60.75999963	-79.06125000
60.79999963	-66.48762000
60.83999963	-53.90789000
60.87999963	-44.92325000
60.91999963	-35.93859000
60.95999963	-28.74844000
60.99999963	-21.55827000
61.03999963	-19.76379000
61.07999963	-21.55827000
61.11999963	3.58897700
61.15999963	26.95395000
61.19999963	39.52757000
61.23999963	48.51222000
61.27999963	68.28211000
61.31999963	88.04590000
61.35999963	109.61030000
61.39999963	125.78510000
61.43999963	143.75440000
61.47999963	152.73900000
61.51999963	156.33410000
61.55999963	147.34950000
61.59999963	136.56420000
61.63999963	123.99060000
61.67999963	118.59490000
61.71999962	113.20540000
61.75999962	107.81580000
61.79999962	104.22070000
61.83999962	100.62560000
61.87999962	95.23605000
61.91999962	91.64098000
61.95999962	88.04590000
61.99999962	82.65633000
62.03999962	75.47227000
62.07999962	62.89254000
62.11999962	44.92325000
62.15999962	19.76379000
62.19999962	-7.18405700
62.23999962	-34.13800000
62.27999962	-61.09195000
62.31999962	-86.25141000
62.35999962	-109.61030000
62.39999962	-127.57960000
62.43999962	-138.36480000
62.47999962	-134.76970000
62.51999962	-127.57960000
62.55999962	-107.81580000
62.59999962	-95.23605000
62.63999962	-80.86184000
62.67999962	-75.47227000
62.71999962	-71.87719000
62.75999962	-71.87719000
62.79999962	-71.87719000
62.83999962	-73.67168000
62.87999962	-77.26676000
62.91999962	-80.86184000
62.95999962	-84.45692000
62.99999962	-84.45692000
63.03999962	-84.45692000
63.07999962	-82.65633000
63.11999962	-79.06125000
63.15999962	-68.28211000
63.19999962	-57.50298000
63.23999962	-46.71774000
63.27999962	-43.12265000
63.31999962	-34.13800000
63.35999961	-28.74844000
63.39999961	-25.15336000
63.43999961	-17.96930000
63.47999961	-8.98464900
63.51999961	3.58897700
63.55999961	19.76379000
63.59999961	35.93859000
63.63999961	55.70238000
63.67999961	75.47227000
63.71999961	93.44157000
63.75999961	115.00600000
63.79999961	136.56420000
63.83999961	147.34950000
63.87999961	158.12860000
63.91999961	152.73900000
63.95999961	143.75440000
63.99999961	131.17470000
64.03999961	123.99060000
64.07999961	118.59490000
64.11999961	113.20540000
64.15999961	106.01520000
64.19999961	102.42620000
64.23999961	100.62560000
64.27999961	95.23605000
64.31999961	91.64098000
64.35999961	89.84650000
64.39999961	82.65633000
64.43999961	71.87719000
64.47999961	57.50298000
64.51999961	35.93859000
64.55999961	10.77914000
64.59999961	-17.96930000
64.63999961	-46.71774000
64.67999961	-73.67168000
64.71999961	-100.62560000
64.75999961	-123.99060000
64.79999961	-140.15930000
64.83999961	-147.34950000
64.87999961	-136.56420000
64.91999961	-118.59490000
64.95999961	-89.84650000
64.99999960	-75.47227000
65.03999960	-68.28211000
65.07999960	-66.48762000
65.11999960	-62.89254000
65.15999960	-68.28211000
65.19999960	-71.87719000
65.23999960	-75.47227000
65.27999960	-77.26676000
65.31999960	-82.65633000
65.35999960	-84.45692000
65.39999960	-88.04590000
65.43999960	-86.25141000
65.47999960	-86.25141000
65.51999960	-75.47227000
65.55999960	-64.68703000
65.59999960	-52.10730000
65.63999960	-43.12265000
65.67999960	-37.73308000
65.71999960	-30.54292000
65.75999960	-26.95395000
65.79999960	-17.96930000
65.83999960	-10.77914000
65.87999960	3.58897700
65.91999960	14.37422000
65.95999960	34.13800000
65.99999960	50.31281000
66.03999960	71.87719000
66.07999960	93.44157000
66.11999960	113.20540000
66.15999960	131.17470000
66.19999960	147.34950000
66.23999960	158.12860000
66.27999960	154.53350000
66.31999960	147.34950000
66.35999960	129.38020000
66.39999960	125.78510000
66.43999960	120.39550000
66.47999960	113.20540000
66.51999960	107.81580000
66.55999960	104.22070000
66.59999960	98.83114000
66.63999959	95.23605000
66.67999959	91.64098000
66.71999959	91.64098000
66.75999959	86.25141000
66.79999959	79.06125000
66.83999959	64.68703000
66.87999959	44.92325000
66.91999959	19.76379000
66.95999959	-8.98464900
66.99999959	-37.73308000
67.03999959	-64.68703000
67.07999959	-93.44157000
67.11999959	-118.59490000
67.15999959	-138.36480000
67.19999959	-152.73900000
67.23999959	-149.14400000
67.27999959	-145.54890000
67.31999959	-118.59490000
67.35999959	-102.42620000
67.39999959	-84.45692000
67.43999959	-75.47227000
67.47999959	-70.07660000
67.51999959	-70.07660000
67.55999959	-68.28211000
67.59999959	-73.67168000
67.63999959	-80.86184000
67.67999959	-86.25141000
67.71999959	-84.45692000
67.75999959	-86.25141000
67.79999959	-88.04590000
67.83999959	-89.84650000
67.87999959	-82.65633000
67.91999959	-71.87719000
67.95999959	-59.29746000
67.99999959	-50.31281000
68.03999959	-41.32816000
68.07999959	-32.34352000
68.11999959	-25.15336000
68.15999959	-17.96930000
68.19999959	-12.57363000
68.23999959	-1.79448800
68.27999959	10.77914000
68.31999958	26.95395000
68.35999958	43.12265000
68.39999958	57.50298000
68.43999958	77.26676000
68.47999958	97.03055000
68.51999958	118.59490000
68.55999958	136.56420000
68.59999958	150.94450000
68.63999958	159.92920000
68.67999958	152.73900000
68.71999958	143.75440000
68.75999958	129.38020000
68.79999958	122.19000000
68.83999958	116.80040000
68.87999958	111.41090000
68.91999958	104.22070000
68.95999958	100.62560000
68.99999958	95.23605000
69.03999958	91.64098000
69.07999958	86.25141000
69.11999958	82.65633000
69.15999958	77.26676000
69.19999958	64.68703000
69.23999958	50.31281000
69.27999958	26.95395000
69.31999958	0.00000000
69.35999958	-28.74844000
69.39999958	-53.90789000
69.43999958	-82.65633000
69.47999958	-107.81580000
69.51999958	-129.38020000
69.55999958	-141.95990000
69.59999958	-150.94450000
69.63999958	-138.36480000
69.67999958	-123.99060000
69.71999958	-102.42620000
69.75999958	-88.04590000
69.79999958	-79.06125000
69.83999958	-73.67168000
69.87999958	-71.87719000
69.91999958	-71.87719000
69.95999957	-75.47227000
69.99999957	-79.06125000
70.03999957	-80.86184000
70.07999957	-86.25141000
70.11999957	-88.04590000
70.15999957	-91.64098000
70.19999957	-89.84650000
70.23999957	-86.25141000
70.27999957	-79.06125000
70.31999957	-68.28211000
70.35999957	-57.50298000
70.39999957	-46.71774000
70.43999957	-43.12265000
70.47999957	-34.13800000
70.51999957	-30.54292000
70.55999957	-21.55827000
70.59999957	-14.37422000
70.63999957	-3.58897700
70.67999957	10.77914000
70.71999957	21.55827000
70.75999957	32.34352000
70.79999957	43.12265000
70.83999957	62.89254000
70.87999957	82.65633000
70.91999957	106.01520000
70.95999957	141.95990000
70.99999957	176.09790000
71.03999957	192.27270000
71.07999957	190.47820000
71.11999957	179.69300000
71.15999957	165.31880000
71.19999957	150.94450000
71.23999957	129.38020000
71.27999957	109.61030000
71.31999957	95.23605000
71.35999957	84.45692000
71.39999957	77.26676000
71.43999957	71.87719000
71.47999957	75.47227000
71.51999957	71.87719000
71.55999957	64.68703000
71.59999956	53.90789000
71.63999956	35.93859000
71.67999956	16.16870000
71.71999956	-10.77914000
71.75999956	-37.73308000
71.79999956	-64.68703000
71.83999956	-91.64098000
71.87999956	-115.00600000
71.91999956	-125.78510000
71.95999956	-138.36480000
71.99999956	-122.19000000
72.03999956	-107.81580000
72.07999956	-75.47227000
72.11999956	-68.28211000
72.15999956	-59.29746000
72.19999956	-57.50298000
72.23999956	-59.29746000
72.27999956	-66.48762000
72.31999956	-77.26676000
72.35999956	-82.65633000
72.39999956	-89.84650000
72.43999956	-97.03055000
72.47999956	-95.23605000
72.51999956	-95.23605000
72.55999956	-93.44157000
72.59999956	-88.04590000
72.63999956	-79.06125000
72.67999956	-68.28211000
72.71999956	-53.90789000
72.75999956	-44.92325000
72.79999956	-37.73308000
72.83999956	-32.34352000
72.87999956	-28.74844000
72.91999956	-21.55827000
72.95999956	-12.57363000
72.99999956	-3.58897700
73.03999956	10.77914000
73.07999956	26.95395000
73.11999956	43.12265000
73.15999956	61.09195000
73.19999956	79.06125000
73.23999955	95.23605000
73.27999955	115.00600000
73.31999955	132.97520000
73.35999955	145.54890000
73.39999955	154.53350000
73.43999955	149.14400000
73.47999955	140.15930000
73.51999955	127.57960000
73.55999955	125.78510000
73.59999955	118.59490000
73.63999955	111.41090000
73.67999955	107.81580000
73.71999955	106.01520000
73.75999955	102.42620000
73.79999955	100.62560000
73.83999955	97.03055000
73.87999955	97.03055000
73.91999955	89.84650000
73.95999955	80.86184000
73.99999955	66.48762000
74.03999955	48.51222000
74.07999955	21.55827000
74.11999955	-7.18405700
74.15999955	-35.93859000
74.19999955	-64.68703000
74.23999955	-95.23605000
74.27999955	-122.19000000
74.31999955	-138.36480000
74.35999955	-152.73900000
74.39999955	-138.36480000
74.43999955	-123.99060000
74.47999955	-100.62560000
74.51999955	-88.04590000
74.55999955	-75.47227000
74.59999955	-70.07660000
74.63999955	-66.48762000
74.67999955	-68.28211000
74.71999955	-70.07660000
74.75999955	-73.67168000
74.79999955	-79.06125000
74.83999955	-82.65633000
74.87999954	-86.25141000
74.91999954	-86.25141000
74.95999954	-88.04590000
74.99999954	-82.65633000
75.03999954	-73.67168000
75.07999954	-64.68703000
75.11999954	-52.10730000
75.15999954	-44.92325000
75.19999954	-35.93859000
75.23999954	-30.54292000
75.27999954	-23.35887000
75.31999954	-17.96930000
75.35999954	-8.98464900
75.39999954	1.79448800
75.43999954	16.16870000
75.47999954	34.13800000
75.51999954	50.31281000
75.55999954	70.07660000
75.59999954	89.84650000
75.63999954	107.81580000
75.67999954	127.57960000
75.71999954	141.95990000
75.75999954	149.14400000
75.79999954	154.53350000
75.83999954	143.75440000
75.87999954	134.76970000
75.91999954	127.57960000
75.95999954	122.19000000
75.99999954	113.20540000
76.03999954	107.81580000
76.07999954	102.42620000
76.11999954	100.62560000
76.15999954	98.83114000
76.19999954	93.44157000
76.23999954	91.64098000
76.27999954	88.04590000
76.31999954	80.86184000
76.35999954	70.07660000
76.39999954	53.90789000
76.43999954	32.34352000
76.47999954	7.18405700
76.51999953	-19.76379000
76.55999953	-44.92325000
76.59999953	-73.67168000
76.63999953	-100.62560000
76.67999953	-120.39550000
76.71999953	-138.36480000
76.75999953	-132.97520000
76.79999953	-129.38020000
76.83999953	-109.61030000
76.87999953	-100.62560000
76.91999953	-89.84650000
76.95999953	-82.65633000
76.99999953	-77.26676000
77.03999953	-75.47227000
77.07999953	-79.06125000
77.11999953	-79.06125000
77.15999953	-80.86184000
77.19999953	-84.45692000
77.23999953	-88.04590000
77.27999953	-89.84650000
77.31999953	-89.84650000
77.35999953	-88.04590000
77.39999953	-79.06125000
77.43999953	-68.28211000
77.47999953	-66.48762000
77.51999953	-55.70238000
77.55999953	-43.12265000
77.59999953	-32.34352000
77.63999953	-28.74844000
77.67999953	-25.15336000
77.71999953	-16.16870000
77.75999953	-1.79448800
77.79999953	10.77914000
77.83999953	23.35887000
77.87999953	39.52757000
77.91999953	57.50298000
77.95999953	75.47227000
77.99999953	91.64098000
78.03999953	107.81580000
78.07999953	123.99060000
78.11999953	138.36480000
78.15999952	147.34950000
78.19999952	150.94450000
78.23999952	143.75440000
78.27999952	132.97520000
78.31999952	122.19000000
78.35999952	120.39550000
78.39999952	113.20540000
78.43999952	107.81580000
78.47999952	106.01520000
78.51999952	104.22070000
78.55999952	98.83114000
78.59999952	95.23605000
78.63999952	91.64098000
78.67999952	86.25141000
78.71999952	79.06125000
78.75999952	64.68703000
78.79999952	48.51222000
78.83999952	25.15336000
78.87999952	-1.79448800
78.91999952	-28.74844000
78.95999952	-55.70238000
78.99999952	-84.45692000
79.03999952	-109.61030000
79.07999952	-123.99060000
79.11999952	-136.56420000
79.15999952	-129.38020000
79.19999952	-120.39550000
79.23999952	-100.62560000
79.27999952	-93.44157000
79.31999952	-84.45692000
79.35999952	-77.26676000
79.39999952	-73.67168000
79.43999952	-73.67168000
79.47999952	-77.26676000
79.51999952	-79.06125000
79.55999952	-80.86184000
79.59999952	-86.25141000
79.63999952	-86.25141000
79.67999952	-89.84650000
79.71999952	-89.84650000
79.75999952	-88.04590000
79.79999952	-80.86184000
79.83999951	-71.87719000
79.87999951	-62.89254000
79.91999951	-55.70238000
79.95999951	-44.92325000
79.99999951	-39.52757000
80.03999951	-32.34352000
80.07999951	-28.74844000
80.11999951	-16.16870000
80.15999951	-5.38956800
80.19999951	10.77914000
80.23999951	26.95395000
80.27999951	46.71774000
80.31999951	66.48762000
80.35999951	86.25141000
80.39999951	102.42620000
80.43999951	120.39550000
80.47999951	132.97520000
80.51999951	143.75440000
80.55999951	149.14400000
80.59999951	145.54890000
80.63999951	138.36480000
80.67999951	129.38020000
80.71999951	125.78510000
80.75999951	116.80040000
80.79999951	100.62560000
80.83999951	106.01520000
80.87999951	115.00600000
80.91999951	107.81580000
80.95999951	98.83114000
80.99999951	93.44157000
81.03999951	93.44157000
81.07999951	91.64098000
81.11999951	79.06125000
81.15999951	66.48762000
81.19999951	50.31281000
81.23999951	26.95395000
81.27999951	0.00000000
81.31999951	-25.15336000
81.35999951	-52.10730000
81.39999951	-82.65633000
81.43999951	-107.81580000
81.47999950	-127.57960000
81.51999950	-143.75440000
81.55999950	-150.94450000
81.59999950	-145.54890000
81.63999950	-125.78510000
81.67999950	-111.41090000
81.71999950	-95.23605000
81.75999950	-84.45692000
81.79999950	-75.47227000
81.83999950	-75.47227000
81.87999950	-75.47227000
81.91999950	-77.26676000
81.95999950	-79.06125000
81.99999950	-80.86184000
82.03999950	-84.45692000
82.07999950	-86.25141000
82.11999950	-88.04590000
82.15999950	-89.84650000
82.19999950	-84.45692000
82.23999950	-77.26676000
82.27999950	-66.48762000
82.31999950	-57.50298000
82.35999950	-43.12265000
82.39999950	-37.73308000
82.43999950	-28.74844000
82.47999950	-25.15336000
82.51999950	-19.76379000
82.55999950	-8.98464900
82.59999950	7.18405700
82.63999950	21.55827000
82.67999950	35.93859000
82.71999950	53.90789000
82.75999950	73.67168000
82.79999950	91.64098000
82.83999950	109.61030000
82.87999950	127.57960000
82.91999950	141.95990000
82.95999950	152.73900000
82.99999950	154.53350000
83.03999950	143.75440000
83.07999950	131.17470000
83.11999949	125.78510000
83.15999949	120.39550000
83.19999949	115.00600000
83.23999949	107.81580000
83.27999949	104.22070000
83.31999949	100.62560000
83.35999949	97.03055000
83.39999949	93.44157000
83.43999949	88.04590000
83.47999949	82.65633000
83.51999949	73.67168000
83.55999949	61.09195000
83.59999949	43.12265000
83.63999949	17.96930000
83.67999949	-8.98464900
83.71999949	-35.93859000
83.75999949	-61.09195000
83.79999949	-88.04590000
83.83999949	-113.20540000
83.87999949	-129.38020000
83.91999949	-141.95990000
83.95999949	-138.36480000
83.99999949	-129.38020000
84.03999949	-107.81580000
84.07999949	-97.03055000
84.11999949	-88.04590000
84.15999949	-79.06125000
84.19999949	-75.47227000
84.23999949	-75.47227000
84.27999949	-79.06125000
84.31999949	-79.06125000
84.35999949	-80.86184000
84.39999949	-86.25141000
84.43999949	-88.04590000
84.47999949	-89.84650000
84.51999949	-91.64098000
84.55999949	-91.64098000
84.59999949	-84.45692000
84.63999949	-73.67168000
84.67999949	-64.68703000
84.71999949	-53.90789000
84.75999948	-44.92325000
84.79999948	-37.73308000
84.83999948	-30.54292000
84.87999948	-26.95395000
84.91999948	-17.96930000
84.95999948	-10.77914000
84.99999948	1.79448800
85.03999948	16.16870000
85.07999948	34.13800000
85.11999948	52.10730000
85.15999948	71.87719000
85.19999948	91.64098000
85.23999948	111.41090000
85.27999948	131.17470000
85.31999948	145.54890000
85.35999948	156.33410000
85.39999948	156.33410000
85.43999948	145.54890000
85.47999948	131.17470000
85.51999948	125.78510000
85.55999948	118.59490000
85.59999948	107.81580000
85.63999948	106.01520000
85.67999948	100.62560000
85.71999948	100.62560000
85.75999948	98.83114000
85.79999948	93.44157000
85.83999948	91.64098000
85.87999948	84.45692000
85.91999948	77.26676000
85.95999948	64.68703000
85.99999948	44.92325000
86.03999948	21.55827000
86.07999948	-7.18405700
86.11999948	-35.93859000
86.15999948	-64.68703000
86.19999948	-93.44157000
86.23999948	-116.80040000
86.27999948	-136.56420000
86.31999948	-145.54890000
86.35999948	-150.94450000
86.39999947	-129.38020000
86.43999947	-109.61030000
86.47999947	-89.84650000
86.51999947	-80.86184000
86.55999947	-71.87719000
86.59999947	-68.28211000
86.63999947	-70.07660000
86.67999947	-71.87719000
86.71999947	-77.26676000
86.75999947	-79.06125000
86.79999947	-84.45692000
86.83999947	-88.04590000
86.87999947	-89.84650000
86.91999947	-89.84650000
86.95999947	-89.84650000
86.99999947	-82.65633000
87.03999947	-71.87719000
87.07999947	-59.29746000
87.11999947	-46.71774000
87.15999947	-37.73308000
87.19999947	-37.73308000
87.23999947	-35.93859000
87.27999947	-28.74844000
87.31999947	-17.96930000
87.35999947	-8.98464900
87.39999947	1.79448800
87.43999947	17.96930000
87.47999947	35.93859000
87.51999947	55.70238000
87.55999947	75.47227000
87.59999947	95.23605000
87.63999947	116.80040000
87.67999947	136.56420000
87.71999947	149.14400000
87.75999947	158.12860000
87.79999947	152.73900000
87.83999947	143.75440000
87.87999947	129.38020000
87.91999947	122.19000000
87.95999947	116.80040000
87.99999947	111.41090000
88.03999946	106.01520000
88.07999946	102.42620000
88.11999946	98.83114000
88.15999946	95.23605000
88.19999946	91.64098000
88.23999946	91.64098000
88.27999946	84.45692000
88.31999946	73.67168000
88.35999946	59.29746000
88.39999946	41.32816000
88.43999946	14.37422000
88.47999946	-12.57363000
88.51999946	-41.32816000
88.55999946	-68.28211000
88.59999946	-97.03055000
88.63999946	-122.19000000
88.67999946	-136.56420000
88.71999946	-150.94450000
88.75999946	-143.75440000
88.79999946	-127.57960000
88.83999946	-104.22070000
88.87999946	-88.04590000
88.91999946	-79.06125000
88.95999946	-73.67168000
88.99999946	-70.07660000
89.03999946	-70.07660000
89.07999946	-73.67168000
89.11999946	-77.26676000
89.15999946	-79.06125000
89.19999946	-82.65633000
89.23999946	-88.04590000
89.27999946	-89.84650000
89.31999946	-91.64098000
89.35999946	-89.84650000
89.39999946	-82.65633000
89.43999946	-71.87719000
89.47999946	-61.09195000
89.51999946	-50.31281000
89.55999946	-44.92325000
89.59999946	-35.93859000
89.63999946	-30.54292000
89.67999945	-23.35887000
89.71999945	-16.16870000
89.75999945	-3.58897700
89.79999945	10.77914000
89.83999945	26.95395000
89.87999945	43.12265000
89.91999945	62.89254000
89.95999945	80.86184000
89.99999945	100.62560000
90.03999945	120.39550000
90.07999945	138.36480000
90.11999945	147.34950000
90.15999945	158.12860000
90.19999945	150.94450000
90.23999945	141.95990000
90.27999945	127.57960000
90.31999945	122.19000000
90.35999945	115.00600000
90.39999945	109.61030000
90.43999945	106.01520000
90.47999945	102.42620000
90.51999945	104.22070000
90.55999945	93.44157000
90.59999945	82.65633000
90.63999945	91.64098000
90.67999945	89.84650000
90.71999945	73.67168000
90.75999945	52.10730000
90.79999945	30.54292000
90.83999945	8.98464900
90.87999945	-17.96930000
90.91999945	-48.51222000
90.95999945	-73.67168000
90.99999945	-100.62560000
91.03999945	-122.19000000
91.07999945	-138.36480000
91.11999945	-140.15930000
91.15999945	-132.97520000
91.19999945	-120.39550000
91.23999945	-104.22070000
91.27999945	-91.64098000
91.31999945	-82.65633000
91.35999944	-79.06125000
91.39999944	-77.26676000
91.43999944	-77.26676000
91.47999944	-79.06125000
91.51999944	-82.65633000
91.55999944	-86.25141000
91.59999944	-88.04590000
91.63999944	-89.84650000
91.67999944	-93.44157000
91.71999944	-91.64098000
91.75999944	-86.25141000
91.79999944	-77.26676000
91.83999944	-66.48762000
91.87999944	-57.50298000
91.91999944	-48.51222000
91.95999944	-39.52757000
91.99999944	-37.73308000
92.03999944	-30.54292000
92.07999944	-26.95395000
92.11999944	-12.57363000
92.15999944	-3.58897700
92.19999944	12.57363000
92.23999944	28.74844000
92.27999944	44.92325000
92.31999944	62.89254000
92.35999944	84.45692000
92.39999944	102.42620000
92.43999944	120.39550000
92.47999944	132.97520000
92.51999944	147.34950000
92.55999944	156.33410000
92.59999944	150.94450000
92.63999944	138.36480000
92.67999944	125.78510000
92.71999944	120.39550000
92.75999944	116.80040000
92.79999944	109.61030000
92.83999944	106.01520000
92.87999944	102.42620000
92.91999944	98.83114000
92.95999944	97.03055000
92.99999943	93.44157000
93.03999943	88.04590000
93.07999943	80.86184000
93.11999943	70.07660000
93.15999943	53.90789000
93.19999943	32.34352000
93.23999943	7.18405700
93.27999943	-19.76379000
93.31999943	-46.71774000
93.35999943	-71.87719000
93.39999943	-98.83114000
93.43999943	-122.19000000
93.47999943	-136.56420000
93.51999943	-143.75440000
93.55999943	-129.38020000
93.59999943	-104.22070000
93.63999943	-68.28211000
93.67999943	-59.29746000
93.71999943	-70.07660000
93.75999943	-75.47227000
93.79999943	-82.65633000
93.83999943	-95.23605000
93.87999943	-123.99060000
93.91999943	-136.56420000
93.95999943	-134.76970000
93.99999943	-120.39550000
94.03999943	-102.42620000
94.07999943	-97.03055000
94.11999943	-91.64098000
94.15999943	-75.47227000
94.19999943	-57.50298000
94.23999943	-44.92325000
94.27999943	-43.12265000
94.31999943	-41.32816000
94.35999943	-28.74844000
94.39999943	-16.16870000
94.43999943	-14.37422000
94.47999943	-12.57363000
94.51999943	-7.18405700
94.55999943	3.58897700
94.59999943	17.96930000
94.63999942	32.34352000
94.67999942	44.92325000
94.71999942	61.09195000
94.75999942	79.06125000
94.79999942	95.23605000
94.83999942	111.41090000
94.87999942	122.19000000
94.91999942	132.97520000
94.95999942	140.15930000
94.99999942	138.36480000
95.03999942	132.97520000
95.07999942	123.99060000
95.11999942	122.19000000
95.15999942	122.19000000
95.19999942	123.99060000
95.23999942	120.39550000
95.27999942	113.20540000
95.31999942	106.01520000
95.35999942	98.83114000
95.39999942	91.64098000
95.43999942	80.86184000
95.47999942	75.47227000
95.51999942	62.89254000
95.55999942	52.10730000
95.59999942	34.13800000
95.63999942	7.18405700
95.67999942	-21.55827000
95.71999942	-50.31281000
95.75999942	-79.06125000
95.79999942	-104.22070000
95.83999942	-129.38020000
95.87999942	-143.75440000
95.91999942	-147.34950000
95.95999942	-138.36480000
95.99999942	-120.39550000
96.03999942	-100.62560000
96.07999942	-86.25141000
96.11999942	-75.47227000
96.15999942	-70.07660000
96.19999942	-66.48762000
96.23999942	-70.07660000
96.27999941	-73.67168000
96.31999941	-79.06125000
96.35999941	-80.86184000
96.39999941	-86.25141000
96.43999941	-89.84650000
96.47999941	-91.64098000
96.51999941	-93.44157000
96.55999941	-88.04590000
96.59999941	-80.86184000
96.63999941	-70.07660000
96.67999941	-59.29746000
96.71999941	-48.51222000
96.75999941	-41.32816000
96.79999941	-34.13800000
96.83999941	-28.74844000
96.87999941	-25.15336000
96.91999941	-14.37422000
96.95999941	0.00000000
96.99999941	16.16870000
97.03999941	28.74844000
97.07999941	46.71774000
97.11999941	70.07660000
97.15999941	91.64098000
97.19999941	107.81580000
97.23999941	125.78510000
97.27999941	138.36480000
97.31999941	149.14400000
97.35999941	158.12860000
97.39999941	145.54890000
97.43999941	132.97520000
97.47999941	122.19000000
97.51999941	118.59490000
97.55999941	113.20540000
97.59999941	109.61030000
97.63999941	104.22070000
97.67999941	100.62560000
97.71999941	100.62560000
97.75999941	95.23605000
97.79999941	89.84650000
97.83999941	86.25141000
97.87999941	79.06125000
97.91999940	68.28211000
97.95999940	52.10730000
97.99999940	28.74844000
98.03999940	5.38956800
98.07999940	-23.35887000
98.11999940	-50.31281000
98.15999940	-77.26676000
98.19999940	-100.62560000
98.23999940	-122.19000000
98.27999940	-134.76970000
98.31999940	-141.95990000
98.35999940	-123.99060000
98.39999940	-109.61030000
98.43999940	-89.84650000
98.47999940	-82.65633000
98.51999940	-71.87719000
98.55999940	-68.28211000
98.59999940	-70.07660000
98.63999940	-71.87719000
98.67999940	-73.67168000
98.71999940	-75.47227000
98.75999940	-79.06125000
98.79999940	-82.65633000
98.83999940	-86.25141000
98.87999940	-86.25141000
98.91999940	-86.25141000
98.95999940	-80.86184000
98.99999940	-71.87719000
99.03999940	-61.09195000
99.07999940	-50.31281000
99.11999940	-41.32816000
99.15999940	-34.13800000
99.19999940	-30.54292000
99.23999940	-26.95395000
99.27999940	-19.76379000
99.31999940	-10.77914000
99.35999940	0.00000000
99.39999940	14.37422000
99.43999940	32.34352000
99.47999940	50.31281000
99.51999940	71.87719000
99.55999939	91.64098000
99.59999939	113.20540000
99.63999939	132.97520000
99.67999939	147.34950000
99.71999939	158.12860000
99.75999939	156.33410000
99.79999939	149.14400000
99.83999939	134.76970000
99.87999939	127.57960000
99.91999939	122.19000000
99.95999939	115.00600000
99.99999939	109.61030000
100.03999939	104.22070000
100.07999939	100.62560000
100.11999939	97.03055000
100.15999939	93.44157000
100.19999939	91.64098000
100.23999939	86.25141000
100.27999939	77.26676000
100.31999939	64.68703000
100.35999939	50.31281000
100.39999939	21.55827000
100.43999939	-14.37422000
100.47999939	-35.93859000
100.51999939	-52.10730000
100.55999939	-84.45692000
100.59999939	-115.00600000
100.63999939	-134.76970000
100.67999939	-143.75440000
100.71999939	-136.56420000
100.75999939	-129.38020000
100.79999939	-106.01520000
100.83999939	-89.84650000
100.87999939	-79.06125000
100.91999939	-73.67168000
100.95999939	-70.07660000
100.99999939	-70.07660000
101.03999939	-73.67168000
101.07999939	-77.26676000
101.11999939	-79.06125000
101.15999939	-80.86184000
101.19999938	-86.25141000
101.23999938	-88.04590000
101.27999938	-88.04590000
101.31999938	-86.25141000
101.35999938	-80.86184000
101.39999938	-70.07660000
101.43999938	-57.50298000
101.47999938	-46.71774000
101.51999938	-39.52757000
101.55999938	-32.34352000
101.59999938	-26.95395000
101.63999938	-21.55827000
101.67999938	-12.57363000
101.71999938	0.00000000
101.75999938	12.57363000
101.79999938	28.74844000
101.83999938	43.12265000
101.87999938	61.09195000
101.91999938	80.86184000
101.95999938	98.83114000
101.99999938	115.00600000
102.03999938	134.76970000
102.07999938	145.54890000
102.11999938	152.73900000
102.15999938	152.73900000
102.19999938	143.75440000
102.23999938	129.38020000
102.27999938	120.39550000
102.31999938	116.80040000
102.35999938	113.20540000
102.39999938	107.81580000
102.43999938	102.42620000
102.47999938	97.03055000
102.51999938	95.23605000
102.55999938	91.64098000
102.59999938	86.25141000
102.63999938	79.06125000
102.67999938	66.48762000
102.71999938	50.31281000
102.75999938	28.74844000
102.79999938	3.58897700
102.83999937	-21.55827000
102.87999937	-50.31281000
102.91999937	-77.26676000
102.95999937	-100.62560000
102.99999937	-123.99060000
103.03999937	-136.56420000
103.07999937	-145.54890000
103.11999937	-129.38020000
103.15999937	-116.80040000
103.19999937	-95.23605000
103.23999937	-88.04590000
103.27999937	-79.06125000
103.31999937	-73.67168000
103.35999937	-71.87719000
103.39999937	-73.67168000
103.43999937	-77.26676000
103.47999937	-79.06125000
103.51999937	-80.86184000
103.55999937	-86.25141000
103.59999937	-88.04590000
103.63999937	-89.84650000
103.67999937	-88.04590000
103.71999937	-84.45692000
103.75999937	-75.47227000
103.79999937	-64.68703000
103.83999937	-53.90789000
103.87999937	-44.92325000
103.91999937	-35.93859000
103.95999937	-32.34352000
103.99999937	-28.74844000
104.03999937	-21.55827000
104.07999937	-8.98464900
104.11999937	1.79448800
104.15999937	16.16870000
104.19999937	32.34352000
104.23999937	50.31281000
104.27999937	70.07660000
104.31999937	88.04590000
104.35999937	107.81580000
104.39999937	125.78510000
104.43999937	140.15930000
104.47999937	149.14400000
104.51999936	152.73900000
104.55999936	147.34950000
104.59999936	136.56420000
104.63999936	123.99060000
104.67999936	120.39550000
104.71999936	115.00600000
104.75999936	106.01520000
104.79999936	102.42620000
104.83999936	100.62560000
104.87999936	97.03055000
104.91999936	93.44157000
104.95999936	89.84650000
104.99999936	84.45692000
105.03999936	77.26676000
105.07999936	62.89254000
105.11999936	44.92325000
105.15999936	21.55827000
105.19999936	-3.58897700
105.23999936	-32.34352000
105.27999936	-62.89254000
105.31999936	-86.25141000
105.35999936	-113.20540000
105.39999936	-125.78510000
105.43999936	-141.95990000
105.47999936	-140.15930000
105.51999936	-131.17470000
105.55999936	-115.00600000
105.59999936	-97.03055000
105.63999936	-80.86184000
105.67999936	-71.87719000
105.71999936	-68.28211000
105.75999936	-68.28211000
105.79999936	-70.07660000
105.83999936	-71.87719000
105.87999936	-77.26676000
105.91999936	-80.86184000
105.95999936	-82.65633000
105.99999936	-86.25141000
106.03999936	-86.25141000
106.07999936	-86.25141000
106.11999936	-79.06125000
106.15999935	-70.07660000
106.19999935	-61.09195000
106.23999935	-50.31281000
106.27999935	-41.32816000
106.31999935	-32.34352000
106.35999935	-30.54292000
106.39999935	-25.15336000
106.43999935	-17.96930000
106.47999935	-8.98464900
106.51999935	3.58897700
106.55999935	19.76379000
106.59999935	37.73308000
106.63999935	57.50298000
106.67999935	75.47227000
106.71999935	97.03055000
106.75999935	118.59490000
106.79999935	141.95990000
106.83999935	149.14400000
106.87999935	158.12860000
106.91999935	150.94450000
106.95999935	143.75440000
106.99999935	131.17470000
107.03999935	125.78510000
107.07999935	118.59490000
107.11999935	113.20540000
107.15999935	106.01520000
107.19999935	104.22070000
107.23999935	100.62560000
107.27999935	95.23605000
107.31999935	91.64098000
107.35999935	89.84650000
107.39999935	82.65633000
107.43999935	70.07660000
107.47999935	55.70238000
107.51999935	35.93859000
107.55999935	7.18405700
107.59999935	-19.76379000
107.63999935	-46.71774000
107.67999935	-75.47227000
107.71999935	-100.62560000
107.75999935	-122.19000000
107.79999934	-134.76970000
107.83999934	-140.15930000
107.87999934	-123.99060000
107.91999934	-106.01520000
107.95999934	-86.25141000
107.99999934	-79.06125000
108.03999934	-70.07660000
108.07999934	-66.48762000
108.11999934	-64.68703000
108.15999934	-68.28211000
108.19999934	-71.87719000
108.23999934	-71.87719000
108.27999934	-75.47227000
108.31999934	-80.86184000
108.35999934	-82.65633000
108.39999934	-84.45692000
108.43999934	-84.45692000
108.47999934	-79.06125000
108.51999934	-70.07660000
108.55999934	-59.29746000
108.59999934	-52.10730000
108.63999934	-43.12265000
108.67999934	-37.73308000
108.71999934	-30.54292000
108.75999934	-25.15336000
108.79999934	-17.96930000
108.83999934	-8.98464900
108.87999934	5.38956800
108.91999934	19.76379000
108.95999934	34.13800000
108.99999934	57.50298000
109.03999934	77.26676000
109.07999934	95.23605000
109.11999934	116.80040000
109.15999934	134.76970000
109.19999934	147.34950000
109.23999934	158.12860000
109.27999934	150.94450000
109.31999934	143.75440000
109.35999934	131.17470000
109.39999934	125.78510000
109.43999933	118.59490000
109.47999933	113.20540000
109.51999933	107.81580000
109.55999933	104.22070000
109.59999933	100.62560000
109.63999933	98.83114000
109.67999933	95.23605000
109.71999933	93.44157000
109.75999933	88.04590000
109.79999933	80.86184000
109.83999933	68.28211000
109.87999933	48.51222000
109.91999933	23.35887000
109.95999933	-3.58897700
109.99999933	-32.34352000
110.03999933	-59.29746000
110.07999933	-86.25141000
110.11999933	-104.22070000
110.15999933	-115.00600000
110.19999933	-123.99060000
110.23999933	-115.00600000
110.27999933	-115.00600000
110.31999933	-95.23605000
110.35999933	-93.44157000
110.39999933	-97.03055000
110.43999933	-102.42620000
110.47999933	-107.81580000
110.51999933	-106.01520000
110.55999933	-100.62560000
110.59999933	-93.44157000
110.63999933	-86.25141000
110.67999933	-79.06125000
110.71999933	-77.26676000
110.75999933	-77.26676000
110.79999933	-73.67168000
110.83999933	-70.07660000
110.87999933	-62.89254000
110.91999933	-57.50298000
110.95999933	-46.71774000
110.99999933	-39.52757000
111.03999933	-28.74844000
111.07999932	-28.74844000
111.11999932	-21.55827000
111.15999932	-16.16870000
111.19999932	-3.58897700
111.23999932	7.18405700
111.27999932	19.76379000
111.31999932	32.34352000
111.35999932	48.51222000
111.39999932	64.68703000
111.43999932	79.06125000
111.47999932	93.44157000
111.51999932	111.41090000
111.55999932	125.78510000
111.59999932	136.56420000
111.63999932	147.34950000
111.67999932	145.54890000
111.71999932	140.15930000
111.75999932	131.17470000
111.79999932	129.38020000
111.83999932	125.78510000
111.87999932	116.80040000
111.91999932	109.61030000
111.95999932	106.01520000
111.99999932	100.62560000
112.03999932	98.83114000
112.07999932	93.44157000
112.11999932	89.84650000
112.15999932	82.65633000
112.19999932	70.07660000
112.23999932	53.90789000
112.27999932	32.34352000
112.31999932	5.38956800
112.35999932	-23.35887000
112.39999932	-52.10730000
112.43999932	-77.26676000
112.47999932	-100.62560000
112.51999932	-122.19000000
112.55999932	-138.36480000
112.59999932	-143.75440000
112.63999932	-136.56420000
112.67999932	-120.39550000
112.71999931	-100.62560000
112.75999931	-86.25141000
112.79999931	-77.26676000
112.83999931	-71.87719000
112.87999931	-71.87719000
112.91999931	-71.87719000
112.95999931	-73.67168000
112.99999931	-77.26676000
113.03999931	-79.06125000
113.07999931	-82.65633000
113.11999931	-86.25141000
113.15999931	-88.04590000
113.19999931	-88.04590000
113.23999931	-84.45692000
113.27999931	-77.26676000
113.31999931	-66.48762000
113.35999931	-57.50298000
113.39999931	-46.71774000
113.43999931	-39.52757000
113.47999931	-34.13800000
113.51999931	-28.74844000
113.55999931	-21.55827000
113.59999931	-12.57363000
113.63999931	0.00000000
113.67999931	16.16870000
113.71999931	34.13800000
113.75999931	50.31281000
113.79999931	70.07660000
113.83999931	88.04590000
113.87999931	106.01520000
113.91999931	125.78510000
113.95999931	140.15930000
113.99999931	149.14400000
114.03999931	150.94450000
114.07999931	143.75440000
114.11999931	132.97520000
114.15999931	122.19000000
114.19999931	120.39550000
114.23999931	115.00600000
114.27999931	107.81580000
114.31999931	104.22070000
114.35999930	100.62560000
114.39999930	97.03055000
114.43999930	93.44157000
114.47999930	89.84650000
114.51999930	86.25141000
114.55999930	79.06125000
114.59999930	66.48762000
114.63999930	48.51222000
114.67999930	26.95395000
114.71999930	0.00000000
114.75999930	-28.74844000
114.79999930	-53.90789000
114.83999930	-80.86184000
114.87999930	-107.81580000
114.91999930	-127.57960000
114.95999930	-140.15930000
114.99999930	-147.34950000
115.03999930	-134.76970000
115.07999930	-116.80040000
115.11999930	-100.62560000
115.15999930	-91.64098000
115.19999930	-80.86184000
115.23999930	-71.87719000
115.27999930	-71.87719000
115.31999930	-71.87719000
115.35999930	-79.06125000
115.39999930	-79.06125000
115.43999930	-82.65633000
115.47999930	-84.45692000
115.51999930	-86.25141000
115.55999930	-89.84650000
115.59999930	-88.04590000
115.63999930	-82.65633000
115.67999930	-73.67168000
115.71999930	-62.89254000
115.75999930	-52.10730000
115.79999930	-43.12265000
115.83999930	-35.93859000
115.87999930	-30.54292000
115.91999930	-25.15336000
115.95999930	-19.76379000
115.99999930	-10.77914000
116.03999929	1.79448800
116.07999929	14.37422000
116.11999929	30.54292000
116.15999929	48.51222000
116.19999929	66.48762000
116.23999929	86.25141000
116.27999929	106.01520000
116.31999929	125.78510000
116.35999929	143.75440000
116.39999929	152.73900000
116.43999929	158.12860000
116.47999929	149.14400000
116.51999929	136.56420000
116.55999929	125.78510000
116.59999929	120.39550000
116.63999929	113.20540000
116.67999929	107.81580000
116.71999929	102.42620000
116.75999929	98.83114000
116.79999929	93.44157000
116.83999929	89.84650000
116.87999929	86.25141000
116.91999929	80.86184000
116.95999929	71.87719000
116.99999929	57.50298000
117.03999929	41.32816000
117.07999929	17.96930000
117.11999929	-8.98464900
117.15999929	-34.13800000
117.19999929	-57.50298000
117.23999929	-86.25141000
117.27999929	-115.00600000
117.31999929	-132.97520000
117.35999929	-141.95990000
117.39999929	-138.36480000
117.43999929	-122.19000000
117.47999929	-109.61030000
117.51999929	-89.84650000
117.55999929	-82.65633000
117.59999929	-73.67168000
117.63999929	-71.87719000
117.67999928	-71.87719000
117.71999928	-73.67168000
117.75999928	-75.47227000
117.79999928	-79.06125000
117.83999928	-82.65633000
117.87999928	-88.04590000
117.91999928	-89.84650000
117.95999928	-89.84650000
117.99999928	-88.04590000
118.03999928	-80.86184000
118.07999928	-71.87719000
118.11999928	-59.29746000
118.15999928	-48.51222000
118.19999928	-41.32816000
118.23999928	-35.93859000
118.27999928	-32.34352000
118.31999928	-25.15336000
118.35999928	-17.96930000
118.39999928	-7.18405700
118.43999928	7.18405700
118.47999928	21.55827000
118.51999928	41.32816000
118.55999928	61.09195000
118.59999928	79.06125000
118.63999928	98.83114000
118.67999928	118.59490000
118.71999928	136.56420000
118.75999928	145.54890000
118.79999928	156.33410000
118.83999928	150.94450000
118.87999928	141.95990000
118.91999928	129.38020000
118.95999928	122.19000000
118.99999928	116.80040000
119.03999928	109.61030000
119.07999928	104.22070000
119.11999928	100.62560000
119.15999928	98.83114000
119.19999928	95.23605000
119.23999928	93.44157000
119.27999928	89.84650000
119.31999927	84.45692000
119.35999927	73.67168000
119.39999927	57.50298000
119.43999927	37.73308000
119.47999927	12.57363000
119.51999927	-16.16870000
119.55999927	-43.12265000
119.59999927	-71.87719000
119.63999927	-97.03055000
119.67999927	-122.19000000
119.71999927	-138.36480000
119.75999927	-147.34950000
119.79999927	-145.54890000
119.83999927	-125.78510000
119.87999927	-100.62560000
119.91999927	-88.04590000
119.95999927	-80.86184000
119.99999927	-73.67168000
120.03999927	-66.48762000
120.07999927	-70.07660000
120.11999927	-84.45692000
120.15999927	-82.65633000
120.19999927	-71.87719000
120.23999927	-77.26676000
120.27999927	-88.04590000
120.31999927	-93.44157000
120.35999927	-91.64098000
120.39999927	-84.45692000
120.43999927	-79.06125000
120.47999927	-68.28211000
120.51999927	-55.70238000
120.55999927	-46.71774000
120.59999927	-37.73308000
120.63999927	-34.13800000
120.67999927	-28.74844000
120.71999927	-25.15336000
120.75999927	-16.16870000
120.79999927	-3.58897700
120.83999927	10.77914000
120.87999927	25.15336000
120.91999927	41.32816000
120.95999926	62.89254000
120.99999926	82.65633000
121.03999926	102.42620000
121.07999926	122.19000000
121.11999926	140.15930000
121.15999926	154.53350000
121.19999926	158.12860000
121.23999926	149.14400000
121.27999926	136.56420000
121.31999926	129.38020000
121.35999926	120.39550000
121.39999926	116.80040000
121.43999926	109.61030000
121.47999926	104.22070000
121.51999926	100.62560000
121.55999926	98.83114000
121.59999926	95.23605000
121.63999926	91.64098000
121.67999926	88.04590000
121.71999926	80.86184000
121.75999926	70.07660000
121.79999926	52.10730000
121.83999926	30.54292000
121.87999926	3.58897700
121.91999926	-25.15336000
121.95999926	-52.10730000
121.99999926	-79.06125000
122.03999926	-102.42620000
122.07999926	-129.38020000
122.11999926	-140.15930000
122.15999926	-152.73900000
122.19999926	-136.56420000
122.23999926	-123.99060000
122.27999926	-97.03055000
122.31999926	-91.64098000
122.35999926	-80.86184000
122.39999926	-77.26676000
122.43999926	-71.87719000
122.47999926	-71.87719000
122.51999926	-73.67168000
122.55999926	-77.26676000
122.59999925	-79.06125000
122.63999925	-82.65633000
122.67999925	-86.25141000
122.71999925	-88.04590000
122.75999925	-89.84650000
122.79999925	-86.25141000
122.83999925	-75.47227000
122.87999925	-64.68703000
122.91999925	-53.90789000
122.95999925	-44.92325000
122.99999925	-41.32816000
123.03999925	-30.54292000
123.07999925	-28.74844000
123.11999925	-21.55827000
123.15999925	-12.57363000
123.19999925	0.00000000
123.23999925	14.37422000
123.27999925	28.74844000
123.31999925	46.71774000
123.35999925	66.48762000
123.39999925	88.04590000
123.43999925	107.81580000
123.47999925	129.38020000
123.51999925	145.54890000
123.55999925	156.33410000
123.59999925	156.33410000
123.63999925	147.34950000
123.67999925	134.76970000
123.71999925	127.57960000
123.75999925	122.19000000
123.79999925	115.00600000
123.83999925	107.81580000
123.87999925	104.22070000
123.91999925	98.83114000
123.95999925	95.23605000
123.99999925	91.64098000
124.03999925	89.84650000
124.07999925	84.45692000
124.11999925	77.26676000
124.15999925	66.48762000
124.19999925	46.71774000
124.23999924	23.35887000
124.27999924	-3.58897700
124.31999924	-32.34352000
124.35999924	-59.29746000
124.39999924	-88.04590000
124.43999924	-115.00600000
124.47999924	-131.17470000
124.51999924	-140.15930000
124.55999924	-136.56420000
124.59999924	-116.80040000
124.63999924	-93.44157000
124.67999924	-79.06125000
124.71999924	-75.47227000
124.75999924	-68.28211000
124.79999924	-66.48762000
124.83999924	-68.28211000
124.87999924	-71.87719000
124.91999924	-73.67168000
124.95999924	-79.06125000
124.99999924	-86.25141000
125.03999924	-88.04590000
125.07999924	-88.04590000
125.11999924	-86.25141000
125.15999924	-86.25141000
125.19999924	-80.86184000
125.23999924	-68.28211000
125.27999924	-57.50298000
125.31999924	-46.71774000
125.35999924	-39.52757000
125.39999924	-32.34352000
125.43999924	-30.54292000
125.47999924	-25.15336000
125.51999924	-17.96930000
125.55999924	-7.18405700
125.59999924	5.38956800
125.63999924	21.55827000
125.67999924	39.52757000
125.71999924	61.09195000
125.75999924	82.65633000
125.79999924	102.42620000
125.83999924	123.99060000
125.87999923	141.95990000
125.91999923	154.53350000
125.95999923	158.12860000
125.99999923	150.94450000
126.03999923	138.36480000
126.07999923	127.57960000
126.11999923	122.19000000
126.15999923	116.80040000
126.19999923	109.61030000
126.23999923	106.01520000
126.27999923	102.42620000
126.31999923	100.62560000
126.35999923	98.83114000
126.39999923	97.03055000
126.43999923	95.23605000
126.47999923	91.64098000
126.51999923	82.65633000
126.55999923	70.07660000
126.59999923	50.31281000
126.63999923	23.35887000
126.67999923	-5.38956800
126.71999923	-34.13800000
126.75999923	-62.89254000
126.79999923	-91.64098000
126.83999923	-116.80040000
126.87999923	-136.56420000
126.91999923	-143.75440000
126.95999923	-149.14400000
126.99999923	-140.15930000
127.03999923	-122.19000000
127.07999923	-100.62560000
127.11999923	-86.25141000
127.15999923	-77.26676000
127.19999923	-75.47227000
127.23999923	-73.67168000
127.27999923	-73.67168000
127.31999923	-75.47227000
127.35999923	-79.06125000
127.39999923	-82.65633000
127.43999923	-84.45692000
127.47999923	-86.25141000
127.51999923	-88.04590000
127.55999922	-86.25141000
127.59999922	-80.86184000
127.63999922	-71.87719000
127.67999922	-59.29746000
127.71999922	-48.51222000
127.75999922	-39.52757000
127.79999922	-30.54292000
127.83999922	-25.15336000
127.87999922	-16.16870000
127.91999922	-8.98464900
127.95999922	1.79448800
127.99999922	14.37422000
128.03999922	28.74844000
128.07999922	44.92325000
128.11999922	61.09195000
128.15999922	79.06125000
128.19999922	98.83114000
128.23999922	116.80040000
128.27999922	134.76970000
128.31999922	147.34950000
128.35999922	156.33410000
128.39999922	149.14400000
128.43999922	138.36480000
128.47999922	129.38020000
128.51999922	123.99060000
128.55999922	116.80040000
128.59999922	111.41090000
128.63999922	107.81580000
128.67999922	102.42620000
128.71999922	98.83114000
128.75999922	95.23605000
128.79999922	91.64098000
128.83999922	89.84650000
128.87999922	82.65633000
128.91999922	71.87719000
128.95999922	57.50298000
128.99999922	35.93859000
129.03999922	10.77914000
129.07999922	-16.16870000
129.11999922	-43.12265000
129.15999922	-70.07660000
129.19999921	-97.03055000
129.23999921	-122.19000000
129.27999921	-138.36480000
129.31999921	-150.94450000
129.35999921	-140.15930000
129.39999921	-129.38020000
129.43999921	-104.22070000
129.47999921	-95.23605000
129.51999921	-80.86184000
129.55999921	-75.47227000
129.59999921	-70.07660000
129.63999921	-73.67168000
129.67999921	-73.67168000
129.71999921	-75.47227000
129.75999921	-79.06125000
129.79999921	-84.45692000
129.83999921	-88.04590000
129.87999921	-88.04590000
129.91999921	-89.84650000
129.95999921	-100.62560000
129.99999921	-88.04590000
130.03999921	-66.48762000
130.07999921	-53.90789000
130.11999921	-52.10730000
130.15999921	-46.71774000
130.19999921	-35.93859000
130.23999921	-26.95395000
130.27999921	-23.35887000
130.31999921	-16.16870000
130.35999921	-1.79448800
130.39999921	10.77914000
130.43999921	26.95395000
130.47999921	43.12265000
130.51999921	62.89254000
130.55999921	80.86184000
130.59999921	100.62560000
130.63999921	122.19000000
130.67999921	140.15930000
130.71999921	150.94450000
130.75999921	158.12860000
130.79999921	149.14400000
130.83999920	140.15930000
130.87999920	127.57960000
130.91999920	122.19000000
130.95999920	115.00600000
130.99999920	109.61030000
131.03999920	104.22070000
131.07999920	100.62560000
131.11999920	98.83114000
131.15999920	93.44157000
131.19999920	91.64098000
131.23999920	89.84650000
131.27999920	84.45692000
131.31999920	75.47227000
131.35999920	59.29746000
131.39999920	37.73308000
131.43999920	12.57363000
131.47999920	-14.37422000
131.51999920	-43.12265000
131.55999920	-71.87719000
131.59999920	-98.83114000
131.63999920	-122.19000000
131.67999920	-140.15930000
131.71999920	-149.14400000
131.75999920	-145.54890000
131.79999920	-127.57960000
131.83999920	-113.20540000
131.87999920	-98.83114000
131.91999920	-88.04590000
131.95999920	-82.65633000
131.99999920	-79.06125000
132.03999920	-77.26676000
132.07999920	-79.06125000
132.11999920	-80.86184000
132.15999920	-84.45692000
132.19999920	-86.25141000
132.23999920	-88.04590000
132.27999920	-93.44157000
132.31999920	-93.44157000
132.35999920	-89.84650000
132.39999920	-80.86184000
132.43999920	-71.87719000
132.47999919	-59.29746000
132.51999919	-50.31281000
132.55999919	-43.12265000
132.59999919	-34.13800000
132.63999919	-28.74844000
132.67999919	-21.55827000
132.71999919	-14.37422000
132.75999919	-3.58897700
132.79999919	7.18405700
132.83999919	23.35887000
132.87999919	39.52757000
132.91999919	57.50298000
132.95999919	75.47227000
132.99999919	95.23605000
133.03999919	115.00600000
133.07999919	132.97520000
133.11999919	145.54890000
133.15999919	156.33410000
133.19999919	152.73900000
133.23999919	143.75440000
133.27999919	129.38020000
133.31999919	122.19000000
133.35999919	116.80040000
133.39999919	111.41090000
133.43999919	106.01520000
133.47999919	104.22070000
133.51999919	100.62560000
133.55999919	97.03055000
133.59999919	93.44157000
133.63999919	89.84650000
133.67999919	82.65633000
133.71999919	71.87719000
133.75999919	57.50298000
133.79999919	35.93859000
133.83999919	12.57363000
133.87999919	-16.16870000
133.91999919	-43.12265000
133.95999919	-71.87719000
133.99999919	-98.83114000
134.03999919	-122.19000000
134.07999919	-136.56420000
134.11999918	-145.54890000
134.15999918	-136.56420000
134.19999918	-120.39550000
134.23999918	-100.62560000
134.27999918	-84.45692000
134.31999918	-73.67168000
134.35999918	-68.28211000
134.39999918	-66.48762000
134.43999918	-68.28211000
134.47999918	-71.87719000
134.51999918	-73.67168000
134.55999918	-79.06125000
134.59999918	-82.65633000
134.63999918	-86.25141000
134.67999918	-89.84650000
134.71999918	-91.64098000
134.75999918	-88.04590000
134.79999918	-82.65633000
134.83999918	-71.87719000
134.87999918	-59.29746000
134.91999918	-46.71774000
134.95999918	-35.93859000
134.99999918	-25.15336000
135.03999918	-21.55827000
135.07999918	-12.57363000
135.11999918	0.00000000
135.15999918	17.96930000
135.19999918	21.55827000
135.23999918	21.55827000
135.27999918	30.54292000
135.31999918	43.12265000
135.35999918	55.70238000
135.39999918	68.28211000
135.43999918	86.25141000
135.47999918	113.20540000
135.51999918	141.95990000
135.55999918	156.33410000
135.59999918	154.53350000
135.63999918	145.54890000
135.67999918	143.75440000
135.71999918	143.75440000
135.75999917	136.56420000
135.79999917	123.99060000
135.83999917	115.00600000
135.87999917	113.20540000
135.91999917	109.61030000
135.95999917	106.01520000
135.99999917	100.62560000
136.03999917	95.23605000
136.07999917	89.84650000
136.11999917	79.06125000
136.15999917	62.89254000
136.19999917	37.73308000
136.23999917	8.98464900
136.27999917	-19.76379000
136.31999917	-50.31281000
136.35999917	-80.86184000
136.39999917	-113.20540000
136.43999917	-138.36480000
136.47999917	-152.73900000
136.51999917	-158.12860000
136.55999917	-141.95990000
136.59999917	-115.00600000
136.63999917	-93.44157000
136.67999917	-73.67168000
136.71999917	-64.68703000
136.75999917	-55.70238000
136.79999917	-55.70238000
136.83999917	-61.09195000
136.87999917	-70.07660000
136.91999917	-73.67168000
136.95999917	-75.47227000
136.99999917	-80.86184000
137.03999917	-86.25141000
137.07999917	-88.04590000
137.11999917	-86.25141000
137.15999917	-82.65633000
137.19999917	-77.26676000
137.23999917	-68.28211000
137.27999917	-61.09195000
137.31999917	-50.31281000
137.35999917	-44.92325000
137.39999916	-37.73308000
137.43999916	-34.13800000
137.47999916	-23.35887000
137.51999916	-10.77914000
137.55999916	3.58897700
137.59999916	19.76379000
137.63999916	35.93859000
137.67999916	55.70238000
137.71999916	73.67168000
137.75999916	93.44157000
137.79999916	115.00600000
137.83999916	134.76970000
137.87999916	149.14400000
137.91999916	158.12860000
137.95999916	156.33410000
137.99999916	145.54890000
138.03999916	132.97520000
138.07999916	123.99060000
138.11999916	118.59490000
138.15999916	113.20540000
138.19999916	106.01520000
138.23999916	102.42620000
138.27999916	100.62560000
138.31999916	95.23605000
138.35999916	91.64098000
138.39999916	89.84650000
138.43999916	86.25141000
138.47999916	79.06125000
138.51999916	70.07660000
138.55999916	53.90789000
138.59999916	28.74844000
138.63999916	3.58897700
138.67999916	-25.15336000
138.71999916	-53.90789000
138.75999916	-84.45692000
138.79999916	-113.20540000
138.83999916	-136.56420000
138.87999916	-150.94450000
138.91999916	-156.33410000
138.95999916	-140.15930000
138.99999916	-125.78510000
139.03999915	-100.62560000
139.07999915	-88.04590000
139.11999915	-75.47227000
139.15999915	-71.87719000
139.19999915	-70.07660000
139.23999915	-71.87719000
139.27999915	-73.67168000
139.31999915	-75.47227000
139.35999915	-80.86184000
139.39999915	-82.65633000
139.43999915	-86.25141000
139.47999915	-88.04590000
139.51999915	-88.04590000
139.55999915	-82.65633000
139.59999915	-71.87719000
139.63999915	-61.09195000
139.67999915	-50.31281000
139.71999915	-37.73308000
139.75999915	-28.74844000
139.79999915	-30.54292000
139.83999915	-30.54292000
139.87999915	-10.77914000
139.91999915	1.79448800
139.95999915	8.98464900
139.99999915	17.96930000
140.03999915	35.93859000
140.07999915	57.50298000
140.11999915	75.47227000
140.15999915	93.44157000
140.19999915	115.00600000
140.23999915	136.56420000
140.27999915	147.34950000
140.31999915	158.12860000
140.35999915	152.73900000
140.39999915	143.75440000
140.43999915	129.38020000
140.47999915	123.99060000
140.51999915	120.39550000
140.55999915	113.20540000
140.59999915	106.01520000
140.63999915	102.42620000
140.67999915	100.62560000
140.71999914	95.23605000
140.75999914	91.64098000
140.79999914	88.04590000
140.83999914	84.45692000
140.87999914	73.67168000
140.91999914	59.29746000
140.95999914	39.52757000
140.99999914	14.37422000
141.03999914	-12.57363000
141.07999914	-41.32816000
141.11999914	-68.28211000
141.15999914	-95.23605000
141.19999914	-120.39550000
141.23999914	-136.56420000
141.27999914	-147.34950000
141.31999914	-138.36480000
141.35999914	-127.57960000
141.39999914	-104.22070000
141.43999914	-89.84650000
141.47999914	-79.06125000
141.51999914	-73.67168000
141.55999914	-70.07660000
141.59999914	-71.87719000
141.63999914	-75.47227000
141.67999914	-75.47227000
141.71999914	-79.06125000
141.75999914	-84.45692000
141.79999914	-88.04590000
141.83999914	-91.64098000
141.87999914	-89.84650000
141.91999914	-86.25141000
141.95999914	-80.86184000
141.99999914	-70.07660000
142.03999914	-57.50298000
142.07999914	-46.71774000
142.11999914	-37.73308000
142.15999914	-32.34352000
142.19999914	-28.74844000
142.23999914	-21.55827000
142.27999914	-14.37422000
142.31999914	-3.58897700
142.35999913	10.77914000
142.39999913	25.15336000
142.43999913	41.32816000
142.47999913	59.29746000
142.51999913	77.26676000
142.55999913	97.03055000
142.59999913	116.80040000
142.63999913	132.97520000
142.67999913	145.54890000
142.71999913	156.33410000
142.75999913	154.53350000
142.79999913	143.75440000
142.83999913	132.97520000
142.87999913	125.78510000
142.91999913	118.59490000
142.95999913	113.20540000
142.99999913	107.81580000
143.03999913	104.22070000
143.07999913	98.83114000
143.11999913	95.23605000
143.15999913	91.64098000
143.19999913	86.25141000
143.23999913	80.86184000
143.27999913	70.07660000
143.31999913	55.70238000
143.35999913	34.13800000
143.39999913	8.98464900
143.43999913	-17.96930000
143.47999913	-46.71774000
143.51999913	-73.67168000
143.55999913	-100.62560000
143.59999913	-123.99060000
143.63999913	-138.36480000
143.67999913	-150.94450000
143.71999913	-140.15930000
143.75999913	-129.38020000
143.79999913	-107.81580000
143.83999913	-93.44157000
143.87999913	-80.86184000
143.91999913	-75.47227000
143.95999913	-71.87719000
143.99999912	-71.87719000
144.03999912	-75.47227000
144.07999912	-79.06125000
144.11999912	-80.86184000
144.15999912	-84.45692000
144.19999912	-88.04590000
144.23999912	-89.84650000
144.27999912	-89.84650000
144.31999912	-86.25141000
144.35999912	-80.86184000
144.39999912	-68.28211000
144.43999912	-57.50298000
144.47999912	-48.51222000
144.51999912	-39.52757000
144.55999912	-32.34352000
144.59999912	-28.74844000
144.63999912	-23.35887000
144.67999912	-19.76379000
144.71999912	-3.58897700
144.75999912	7.18405700
144.79999912	26.95395000
144.83999912	44.92325000
144.87999912	61.09195000
144.91999912	79.06125000
144.95999912	100.62560000
144.99999912	122.19000000
145.03999912	138.36480000
145.07999912	150.94450000
145.11999912	158.12860000
145.15999912	150.94450000
145.19999912	141.95990000
145.23999912	127.57960000
145.27999912	122.19000000
145.31999912	115.00600000
145.35999912	109.61030000
145.39999912	104.22070000
145.43999912	100.62560000
145.47999912	98.83114000
145.51999912	93.44157000
145.55999912	89.84650000
145.59999912	84.45692000
145.63999911	77.26676000
145.67999911	64.68703000
145.71999911	46.71774000
145.75999911	25.15336000
145.79999911	-1.79448800
145.83999911	-28.74844000
145.87999911	-57.50298000
145.91999911	-82.65633000
145.95999911	-109.61030000
145.99999911	-127.57960000
146.03999911	-149.14400000
146.07999911	-140.15930000
146.11999911	-143.75440000
146.15999911	-129.38020000
146.19999911	-115.00600000
146.23999911	-97.03055000
146.27999911	-80.86184000
146.31999911	-77.26676000
146.35999911	-79.06125000
146.39999911	-80.86184000
146.43999911	-79.06125000
146.47999911	-80.86184000
146.51999911	-86.25141000
146.55999911	-88.04590000
146.59999911	-91.64098000
146.63999911	-89.84650000
146.67999911	-89.84650000
146.71999911	-86.25141000
146.75999911	-80.86184000
146.79999911	-71.87719000
146.83999911	-59.29746000
146.87999911	-48.51222000
146.91999911	-41.32816000
146.95999911	-34.13800000
146.99999911	-28.74844000
147.03999911	-21.55827000
147.07999911	-12.57363000
147.11999911	-3.58897700
147.15999911	10.77914000
147.19999911	26.95395000
147.23999911	43.12265000
147.27999910	59.29746000
147.31999910	77.26676000
147.35999910	98.83114000
147.39999910	118.59490000
147.43999910	136.56420000
147.47999910	149.14400000
147.51999910	158.12860000
147.55999910	150.94450000
147.59999910	141.95990000
147.63999910	127.57960000
147.67999910	122.19000000
147.71999910	115.00600000
147.75999910	109.61030000
147.79999910	104.22070000
147.83999910	100.62560000
147.87999910	93.44157000
147.91999910	89.84650000
147.95999910	84.45692000
147.99999910	79.06125000
148.03999910	70.07660000
148.07999910	57.50298000
148.11999910	39.52757000
148.15999910	19.76379000
148.19999910	-7.18405700
148.23999910	-34.13800000
148.27999910	-59.29746000
148.31999910	-86.25141000
148.35999910	-111.41090000
148.39999910	-129.38020000
148.43999910	-141.95990000
148.47999910	-138.36480000
148.51999910	-127.57960000
148.55999910	-106.01520000
148.59999910	-93.44157000
148.63999910	-82.65633000
148.67999910	-75.47227000
148.71999910	-71.87719000
148.75999910	-71.87719000
148.79999910	-73.67168000
148.83999910	-79.06125000
148.87999910	-80.86184000
148.91999909	-84.45692000
148.95999909	-88.04590000
148.99999909	-91.64098000
149.03999909	-89.84650000
149.07999909	-89.84650000
149.11999909	-84.45692000
149.15999909	-73.67168000
149.19999909	-64.68703000
149.23999909	-53.90789000
149.27999909	-44.92325000
149.31999909	-37.73308000
149.35999909	-34.13800000
149.39999909	-30.54292000
149.43999909	-23.35887000
149.47999909	-14.37422000
149.51999909	-1.79448800
149.55999909	12.57363000
149.59999909	34.13800000
149.63999909	44.92325000
149.67999909	57.50298000
149.71999909	91.64098000
149.75999909	116.80040000
149.79999909	129.38020000
149.83999909	143.75440000
149.87999909	150.94450000
149.91999909	161.72370000
149.95999909	150.94450000
149.99999909	134.76970000
150.03999909	125.78510000
150.07999909	122.19000000
150.11999909	113.20540000
150.15999909	107.81580000
150.19999909	104.22070000
150.23999909	100.62560000
150.27999909	95.23605000
150.31999909	91.64098000
150.35999909	89.84650000
150.39999909	84.45692000
150.43999909	71.87719000
150.47999909	59.29746000
150.51999909	41.32816000
150.55999908	17.96930000
150.59999908	-8.98464900
150.63999908	-37.73308000
150.67999908	-64.68703000
150.71999908	-93.44157000
150.75999908	-118.59490000
150.79999908	-136.56420000
150.83999908	-145.54890000
150.87999908	-143.75440000
150.91999908	-131.17470000
150.95999908	-111.41090000
150.99999908	-95.23605000
151.03999908	-82.65633000
151.07999908	-75.47227000
151.11999908	-71.87719000
151.15999908	-71.87719000
151.19999908	-73.67168000
151.23999908	-73.67168000
151.27999908	-80.86184000
151.31999908	-82.65633000
151.35999908	-88.04590000
151.39999908	-91.64098000
151.43999908	-91.64098000
151.47999908	-86.25141000
151.51999908	-80.86184000
151.55999908	-71.87719000
151.59999908	-61.09195000
151.63999908	-50.31281000
151.67999908	-39.52757000
151.71999908	-32.34352000
151.75999908	-28.74844000
151.79999908	-21.55827000
151.83999908	-14.37422000
151.87999908	-3.58897700
151.91999908	7.18405700
151.95999908	21.55827000
151.99999908	35.93859000
152.03999908	53.90789000
152.07999908	73.67168000
152.11999908	93.44157000
152.15999908	113.20540000
152.19999908	132.97520000
152.23999907	149.14400000
152.27999907	158.12860000
152.31999907	156.33410000
152.35999907	147.34950000
152.39999907	134.76970000
152.43999907	127.57960000
152.47999907	120.39550000
152.51999907	113.20540000
152.55999907	107.81580000
152.59999907	102.42620000
152.63999907	97.03055000
152.67999907	95.23605000
152.71999907	89.84650000
152.75999907	84.45692000
152.79999907	77.26676000
152.83999907	66.48762000
152.87999907	48.51222000
152.91999907	28.74844000
152.95999907	3.58897700
152.99999907	-23.35887000
153.03999907	-50.31281000
153.07999907	-79.06125000
153.11999907	-104.22070000
153.15999907	-125.78510000
153.19999907	-140.15930000
153.23999907	-145.54890000
153.27999907	-141.95990000
153.31999907	-122.19000000
153.35999907	-104.22070000
153.39999907	-88.04590000
153.43999907	-79.06125000
153.47999907	-70.07660000
153.51999907	-64.68703000
153.55999907	-68.28211000
153.59999907	-71.87719000
153.63999907	-75.47227000
153.67999907	-79.06125000
153.71999907	-84.45692000
153.75999907	-86.25141000
153.79999907	-89.84650000
153.83999907	-88.04590000
153.87999906	-84.45692000
153.91999906	-75.47227000
153.95999906	-64.68703000
153.99999906	-53.90789000
154.03999906	-44.92325000
154.07999906	-35.93859000
154.11999906	-30.54292000
154.15999906	-26.95395000
154.19999906	-21.55827000
154.23999906	-14.37422000
154.27999906	-3.58897700
154.31999906	8.98464900
154.35999906	25.15336000
154.39999906	43.12265000
154.43999906	61.09195000
154.47999906	79.06125000
154.51999906	98.83114000
154.55999906	122.19000000
154.59999906	141.95990000
154.63999906	156.33410000
154.67999906	163.51820000
154.71999906	156.33410000
154.75999906	141.95990000
154.79999906	129.38020000
154.83999906	123.99060000
154.87999906	115.00600000
154.91999906	107.81580000
154.95999906	104.22070000
154.99999906	98.83114000
155.03999906	95.23605000
155.07999906	91.64098000
155.11999906	86.25141000
155.15999906	82.65633000
155.19999906	71.87719000
155.23999906	57.50298000
155.27999906	41.32816000
155.31999906	17.96930000
155.35999906	-8.98464900
155.39999906	-37.73308000
155.43999906	-64.68703000
155.47999906	-91.64098000
155.51999905	-115.00600000
155.55999905	-131.17470000
155.59999905	-141.95990000
155.63999905	-132.97520000
155.67999905	-116.80040000
155.71999905	-98.83114000
155.75999905	-86.25141000
155.79999905	-75.47227000
155.83999905	-68.28211000
155.87999905	-66.48762000
155.91999905	-66.48762000
155.95999905	-70.07660000
155.99999905	-71.87719000
156.03999905	-73.67168000
156.07999905	-79.06125000
156.11999905	-88.04590000
156.15999905	-91.64098000
156.19999905	-89.84650000
156.23999905	-86.25141000
156.27999905	-77.26676000
156.31999905	-68.28211000
156.35999905	-57.50298000
156.39999905	-46.71774000
156.43999905	-37.73308000
156.47999905	-34.13800000
156.51999905	-28.74844000
156.55999905	-21.55827000
156.59999905	-14.37422000
156.63999905	-3.58897700
156.67999905	7.18405700
156.71999905	23.35887000
156.75999905	39.52757000
156.79999905	59.29746000
156.83999905	77.26676000
156.87999905	97.03055000
156.91999905	115.00600000
156.95999905	134.76970000
156.99999905	145.54890000
157.03999905	156.33410000
157.07999905	154.53350000
157.11999905	145.54890000
157.15999904	132.97520000
157.19999904	125.78510000
157.23999904	118.59490000
157.27999904	111.41090000
157.31999904	104.22070000
157.35999904	97.03055000
157.39999904	75.47227000
157.43999904	57.50298000
157.47999904	64.68703000
157.51999904	77.26676000
157.55999904	75.47227000
157.59999904	73.67168000
157.63999904	73.67168000
157.67999904	73.67168000
157.71999904	62.89254000
157.75999904	25.15336000
157.79999904	-25.15336000
157.83999904	-66.48762000
157.87999904	-97.03055000
157.91999904	-127.57960000
157.95999904	-150.94450000
157.99999904	-172.50890000
158.03999904	-150.94450000
158.07999904	-127.57960000
158.11999904	-100.62560000
158.15999904	-98.83114000
158.19999904	-91.64098000
158.23999904	-82.65633000
158.27999904	-73.67168000
158.31999904	-73.67168000
158.35999904	-79.06125000
158.39999904	-82.65633000
158.43999904	-82.65633000
158.47999904	-86.25141000
158.51999904	-86.25141000
158.55999904	-88.04590000
158.59999904	-86.25141000
158.63999904	-77.26676000
158.67999904	-62.89254000
158.71999904	-44.92325000
158.75999904	-34.13800000
158.79999903	-28.74844000
158.83999903	-25.15336000
158.87999903	-23.35887000
158.91999903	-23.35887000
158.95999903	-23.35887000
158.99999903	-19.76379000
159.03999903	-8.98464900
159.07999903	8.98464900
159.11999903	30.54292000
159.15999903	52.10730000
159.19999903	73.67168000
159.23999903	97.03055000
159.27999903	118.59490000
159.31999903	136.56420000
159.35999903	147.34950000
159.39999903	156.33410000
159.43999903	156.33410000
159.47999903	145.54890000
159.51999903	125.78510000
159.55999903	125.78510000
159.59999903	132.97520000
159.63999903	127.57960000
159.67999903	115.00600000
159.71999903	107.81580000
159.75999903	102.42620000
159.79999903	100.62560000
159.83999903	91.64098000
159.87999903	84.45692000
159.91999903	79.06125000
159.95999903	68.28211000
159.99999903	52.10730000
160.03999903	35.93859000
160.07999903	12.57363000
160.11999903	-14.37422000
160.15999903	-43.12265000
160.19999903	-68.28211000
160.23999903	-93.44157000
160.27999903	-115.00600000
160.31999903	-129.38020000
160.35999903	-141.95990000
160.39999903	-129.38020000
160.43999902	-118.59490000
160.47999902	-95.23605000
160.51999902	-86.25141000
160.55999902	-79.06125000
160.59999902	-73.67168000
160.63999902	-70.07660000
160.67999902	-70.07660000
160.71999902	-71.87719000
160.75999902	-75.47227000
160.79999902	-79.06125000
160.83999902	-86.25141000
160.87999902	-89.84650000
160.91999902	-93.44157000
160.95999902	-93.44157000
160.99999902	-91.64098000
161.03999902	-82.65633000
161.07999902	-66.48762000
161.11999902	-55.70238000
161.15999902	-43.12265000
161.19999902	-34.13800000
161.23999902	-28.74844000
161.27999902	-23.35887000
161.31999902	-16.16870000
161.35999902	-7.18405700
161.39999902	1.79448800
161.43999902	14.37422000
161.47999902	28.74844000
161.51999902	46.71774000
161.55999902	64.68703000
161.59999902	82.65633000
161.63999902	102.42620000
161.67999902	122.19000000
161.71999902	136.56420000
161.75999902	149.14400000
161.79999902	156.33410000
161.83999902	149.14400000
161.87999902	138.36480000
161.91999902	127.57960000
161.95999902	120.39550000
161.99999902	115.00600000
162.03999902	109.61030000
162.07999901	104.22070000
162.11999901	100.62560000
162.15999901	100.62560000
162.19999901	95.23605000
162.23999901	93.44157000
162.27999901	89.84650000
162.31999901	82.65633000
162.35999901	68.28211000
162.39999901	50.31281000
162.43999901	28.74844000
162.47999901	1.79448800
162.51999901	-26.95395000
162.55999901	-53.90789000
162.59999901	-82.65633000
162.63999901	-107.81580000
162.67999901	-129.38020000
162.71999901	-145.54890000
162.75999901	-145.54890000
162.79999901	-136.56420000
162.83999901	-116.80040000
162.87999901	-97.03055000
162.91999901	-88.04590000
162.95999901	-79.06125000
162.99999901	-73.67168000
163.03999901	-71.87719000
163.07999901	-73.67168000
163.11999901	-77.26676000
163.15999901	-77.26676000
163.19999901	-80.86184000
163.23999901	-84.45692000
163.27999901	-86.25141000
163.31999901	-88.04590000
163.35999901	-88.04590000
163.39999901	-82.65633000
163.43999901	-73.67168000
163.47999901	-61.09195000
163.51999901	-52.10730000
163.55999901	-43.12265000
163.59999901	-34.13800000
163.63999901	-28.74844000
163.67999901	-23.35887000
163.71999900	-17.96930000
163.75999900	-8.98464900
163.79999900	3.58897700
163.83999900	17.96930000
163.87999900	34.13800000
163.91999900	50.31281000
163.95999900	70.07660000
163.99999900	89.84650000
164.03999900	109.61030000
164.07999900	129.38020000
164.11999900	145.54890000
164.15999900	154.53350000
164.19999900	156.33410000
164.23999900	147.34950000
164.27999900	134.76970000
164.31999900	127.57960000
164.35999900	118.59490000
164.39999900	111.41090000
164.43999900	107.81580000
164.47999900	104.22070000
164.51999900	102.42620000
164.55999900	98.83114000
164.59999900	93.44157000
164.63999900	89.84650000
164.67999900	84.45692000
164.71999900	75.47227000
164.75999900	62.89254000
164.79999900	43.12265000
164.83999900	19.76379000
164.87999900	-7.18405700
164.91999900	-35.93859000
164.95999900	-64.68703000
164.99999900	-91.64098000
165.03999900	-115.00600000
165.07999900	-134.76970000
165.11999900	-143.75440000
165.15999900	-141.95990000
165.19999900	-123.99060000
165.23999900	-102.42620000
165.27999900	-89.84650000
165.31999900	-82.65633000
165.35999900	-75.47227000
165.39999899	-70.07660000
165.43999899	-71.87719000
165.47999899	-73.67168000
165.51999899	-77.26676000
165.55999899	-79.06125000
165.59999899	-82.65633000
165.63999899	-86.25141000
165.67999899	-88.04590000
165.71999899	-89.84650000
165.75999899	-88.04590000
165.79999899	-79.06125000
165.83999899	-68.28211000
165.87999899	-57.50298000
165.91999899	-44.92325000
165.95999899	-35.93859000
165.99999899	-28.74844000
166.03999899	-30.54292000
166.07999899	-23.35887000
166.11999899	-14.37422000
166.15999899	-1.79448800
166.19999899	7.18405700
166.23999899	21.55827000
166.27999899	39.52757000
166.31999899	59.29746000
166.35999899	79.06125000
166.39999899	98.83114000
166.43999899	118.59490000
166.47999899	136.56420000
166.51999899	149.14400000
166.55999899	156.33410000
166.59999899	150.94450000
166.63999899	140.15930000
166.67999899	129.38020000
166.71999899	125.78510000
166.75999899	118.59490000
166.79999899	111.41090000
166.83999899	106.01520000
166.87999899	104.22070000
166.91999899	100.62560000
166.95999899	95.23605000
166.99999899	93.44157000
167.03999898	91.64098000
167.07999898	84.45692000
167.11999898	75.47227000
167.15999898	59.29746000
167.19999898	39.52757000
167.23999898	12.57363000
167.27999898	-14.37422000
167.31999898	-43.12265000
167.35999898	-70.07660000
167.39999898	-98.83114000
167.43999898	-122.19000000
167.47999898	-138.36480000
167.51999898	-149.14400000
167.55999898	-143.75440000
167.59999898	-129.38020000
167.63999898	-109.61030000
167.67999898	-97.03055000
167.71999898	-82.65633000
167.75999898	-71.87719000
167.79999898	-70.07660000
167.83999898	-70.07660000
167.87999898	-71.87719000
167.91999898	-73.67168000
167.95999898	-79.06125000
167.99999898	-82.65633000
168.03999898	-84.45692000
168.07999898	-86.25141000
168.11999898	-86.25141000
168.15999898	-84.45692000
168.19999898	-75.47227000
168.23999898	-66.48762000
168.27999898	-55.70238000
168.31999898	-44.92325000
168.35999898	-35.93859000
168.39999898	-30.54292000
168.43999898	-25.15336000
168.47999898	-19.76379000
168.51999898	-12.57363000
168.55999898	-1.79448800
168.59999898	12.57363000
168.63999898	26.95395000
168.67999897	43.12265000
168.71999897	61.09195000
168.75999897	80.86184000
168.79999897	102.42620000
168.83999897	122.19000000
168.87999897	140.15930000
168.91999897	150.94450000
168.95999897	158.12860000
168.99999897	150.94450000
169.03999897	141.95990000
169.07999897	125.78510000
169.11999897	123.99060000
169.15999897	116.80040000
169.19999897	107.81580000
169.23999897	104.22070000
169.27999897	102.42620000
169.31999897	100.62560000
169.35999897	82.65633000
169.39999897	79.06125000
169.43999897	91.64098000
169.47999897	82.65633000
169.51999897	64.68703000
169.55999897	46.71774000
169.59999897	25.15336000
169.63999897	1.79448800
169.67999897	-28.74844000
169.71999897	-57.50298000
169.75999897	-82.65633000
169.79999897	-107.81580000
169.83999897	-129.38020000
169.87999897	-143.75440000
169.91999897	-141.95990000
169.95999897	-141.95990000
169.99999897	-113.20540000
170.03999897	-95.23605000
170.07999897	-75.47227000
170.11999897	-73.67168000
170.15999897	-68.28211000
170.19999897	-66.48762000
170.23999897	-68.28211000
170.27999897	-73.67168000
170.31999896	-75.47227000
170.35999896	-79.06125000
170.39999896	-82.65633000
170.43999896	-88.04590000
170.47999896	-88.04590000
170.51999896	-89.84650000
170.55999896	-84.45692000
170.59999896	-75.47227000
170.63999896	-62.89254000
170.67999896	-52.10730000
170.71999896	-43.12265000
170.75999896	-34.13800000
170.79999896	-28.74844000
170.83999896	-23.35887000
170.87999896	-14.37422000
170.91999896	-8.98464900
170.95999896	5.38956800
170.99999896	17.96930000
171.03999896	34.13800000
171.07999896	48.51222000
171.11999896	70.07660000
171.15999896	89.84650000
171.19999896	109.61030000
171.23999896	129.38020000
171.27999896	143.75440000
171.31999896	158.12860000
171.35999896	158.12860000
171.39999896	147.34950000
171.43999896	136.56420000
171.47999896	129.38020000
171.51999896	122.19000000
171.55999896	115.00600000
171.59999896	107.81580000
171.63999896	102.42620000
171.67999896	98.83114000
171.71999896	97.03055000
171.75999896	91.64098000
171.79999896	88.04590000
171.83999896	80.86184000
171.87999896	71.87719000
171.91999896	57.50298000
171.95999895	37.73308000
171.99999895	14.37422000
172.03999895	-12.57363000
172.07999895	-41.32816000
172.11999895	-68.28211000
172.15999895	-95.23605000
172.19999895	-120.39550000
172.23999895	-136.56420000
172.27999895	-150.94450000
172.31999895	-145.54890000
172.35999895	-131.17470000
172.39999895	-115.00600000
172.43999895	-86.25141000
172.47999895	-73.67168000
172.51999895	-57.50298000
172.55999895	-64.68703000
172.59999895	-64.68703000
172.63999895	-70.07660000
172.67999895	-71.87719000
172.71999895	-77.26676000
172.75999895	-82.65633000
172.79999895	-86.25141000
172.83999895	-88.04590000
172.87999895	-89.84650000
172.91999895	-88.04590000
172.95999895	-80.86184000
172.99999895	-70.07660000
173.03999895	-59.29746000
173.07999895	-46.71774000
173.11999895	-37.73308000
173.15999895	-30.54292000
173.19999895	-23.35887000
173.23999895	-17.96930000
173.27999895	-10.77914000
173.31999895	-1.79448800
173.35999895	12.57363000
173.39999895	26.95395000
173.43999895	44.92325000
173.47999895	62.89254000
173.51999895	80.86184000
173.55999895	100.62560000
173.59999894	122.19000000
173.63999894	140.15930000
173.67999894	154.53350000
173.71999894	159.92920000
173.75999894	150.94450000
173.79999894	141.95990000
173.83999894	129.38020000
173.87999894	123.99060000
173.91999894	116.80040000
173.95999894	111.41090000
173.99999894	106.01520000
174.03999894	102.42620000
174.07999894	97.03055000
174.11999894	91.64098000
174.15999894	89.84650000
174.19999894	84.45692000
174.23999894	73.67168000
174.27999894	64.68703000
174.31999894	48.51222000
174.35999894	28.74844000
174.39999894	0.00000000
174.43999894	-28.74844000
174.47999894	-57.50298000
174.51999894	-86.25141000
174.55999894	-109.61030000
174.59999894	-132.97520000
174.63999894	-145.54890000
174.67999894	-152.73900000
174.71999894	-141.95990000
174.75999894	-123.99060000
174.79999894	-100.62560000
174.83999894	-86.25141000
174.87999894	-79.06125000
174.91999894	-71.87719000
174.95999894	-70.07660000
174.99999894	-71.87719000
175.03999894	-75.47227000
175.07999894	-79.06125000
175.11999894	-80.86184000
175.15999894	-86.25141000
175.19999894	-88.04590000
175.23999893	-91.64098000
175.27999893	-91.64098000
175.31999893	-86.25141000
175.35999893	-79.06125000
175.39999893	-64.68703000
175.43999893	-53.90789000
175.47999893	-43.12265000
175.51999893	-34.13800000
175.55999893	-26.95395000
175.59999893	-21.55827000
175.63999893	-14.37422000
175.67999893	-7.18405700
175.71999893	7.18405700
175.75999893	19.76379000
175.79999893	30.54292000
175.83999893	46.71774000
175.87999893	66.48762000
175.91999893	86.25141000
175.95999893	107.81580000
175.99999893	125.78510000
176.03999893	141.95990000
176.07999893	158.12860000
176.11999893	158.12860000
176.15999893	147.34950000
176.19999893	134.76970000
176.23999893	125.78510000
176.27999893	122.19000000
176.31999893	115.00600000
176.35999893	107.81580000
176.39999893	100.62560000
176.43999893	98.83114000
176.47999893	93.44157000
176.51999893	89.84650000
176.55999893	86.25141000
176.59999893	80.86184000
176.63999893	71.87719000
176.67999893	59.29746000
176.71999893	43.12265000
176.75999893	17.96930000
176.79999893	-10.77914000
176.83999893	-37.73308000
176.87999893	-64.68703000
176.91999892	-93.44157000
176.95999892	-118.59490000
176.99999892	-138.36480000
177.03999892	-149.14400000
177.07999892	-147.34950000
177.11999892	-132.97520000
177.15999892	-115.00600000
177.19999892	-95.23605000
177.23999892	-84.45692000
177.27999892	-77.26676000
177.31999892	-71.87719000
177.35999892	-71.87719000
177.39999892	-75.47227000
177.43999892	-79.06125000
177.47999892	-80.86184000
177.51999892	-84.45692000
177.55999892	-88.04590000
177.59999892	-91.64098000
177.63999892	-91.64098000
177.67999892	-89.84650000
177.71999892	-86.25141000
177.75999892	-73.67168000
177.79999892	-61.09195000
177.83999892	-52.10730000
177.87999892	-43.12265000
177.91999892	-34.13800000
177.95999892	-26.95395000
177.99999892	-21.55827000
178.03999892	-14.37422000
178.07999892	-5.38956800
178.11999892	5.38956800
178.15999892	19.76379000
178.19999892	34.13800000
178.23999892	52.10730000
178.27999892	71.87719000
178.31999892	91.64098000
178.35999892	111.41090000
178.39999892	131.17470000
178.43999892	143.75440000
178.47999892	158.12860000
178.51999892	156.33410000
178.55999891	149.14400000
178.59999891	134.76970000
178.63999891	127.57960000
178.67999891	120.39550000
178.71999891	113.20540000
178.75999891	106.01520000
178.79999891	102.42620000
178.83999891	98.83114000
178.87999891	93.44157000
178.91999891	89.84650000
178.95999891	88.04590000
178.99999891	80.86184000
179.03999891	71.87719000
179.07999891	57.50298000
179.11999891	41.32816000
179.15999891	21.55827000
179.19999891	-16.16870000
179.23999891	-50.31281000
179.27999891	-62.89254000
179.31999891	-86.25141000
179.35999891	-118.59490000
179.39999891	-138.36480000
179.43999891	-152.73900000
179.47999891	-140.15930000
179.51999891	-134.76970000
179.55999891	-109.61030000
179.59999891	-93.44157000
179.63999891	-75.47227000
179.67999891	-73.67168000
179.71999891	-70.07660000
179.75999891	-70.07660000
179.79999891	-71.87719000
179.83999891	-77.26676000
179.87999891	-79.06125000
179.91999891	-82.65633000
179.95999891	-86.25141000
179.99999891	-89.84650000
180.03999891	-91.64098000
180.07999891	-88.04590000
180.11999891	-82.65633000
180.15999891	-71.87719000
180.19999890	-61.09195000
180.23999890	-50.31281000
180.27999890	-43.12265000
180.31999890	-34.13800000
180.35999890	-34.13800000
180.39999890	-26.95395000
180.43999890	-23.35887000
180.47999890	-8.98464900
180.51999890	1.79448800
180.55999890	17.96930000
180.59999890	35.93859000
180.63999890	55.70238000
180.67999890	79.06125000
180.71999890	97.03055000
180.75999890	120.39550000
180.79999890	140.15930000
180.83999890	150.94450000
180.87999890	161.72370000
180.91999890	154.53350000
180.95999890	145.54890000
180.99999890	129.38020000
181.03999890	122.19000000
181.07999890	118.59490000
181.11999890	113.20540000
181.15999890	107.81580000
181.19999890	102.42620000
181.23999890	98.83114000
181.27999890	95.23605000
181.31999890	93.44157000
181.35999890	91.64098000
181.39999890	84.45692000
181.43999890	77.26676000
181.47999890	61.09195000
181.51999890	41.32816000
181.55999890	14.37422000
181.59999890	-14.37422000
181.63999890	-43.12265000
181.67999890	-71.87719000
181.71999890	-98.83114000
181.75999890	-123.99060000
181.79999890	-140.15930000
181.83999889	-149.14400000
181.87999889	-145.54890000
181.91999889	-127.57960000
181.95999889	-107.81580000
181.99999889	-86.25141000
182.03999889	-73.67168000
182.07999889	-68.28211000
182.11999889	-66.48762000
182.15999889	-68.28211000
182.19999889	-70.07660000
182.23999889	-73.67168000
182.27999889	-75.47227000
182.31999889	-79.06125000
182.35999889	-86.25141000
182.39999889	-88.04590000
182.43999889	-88.04590000
182.47999889	-86.25141000
182.51999889	-79.06125000
182.55999889	-68.28211000
182.59999889	-57.50298000
182.63999889	-44.92325000
182.67999889	-37.73308000
182.71999889	-32.34352000
182.75999889	-26.95395000
182.79999889	-21.55827000
182.83999889	-16.16870000
182.87999889	-7.18405700
182.91999889	7.18405700
182.95999889	21.55827000
182.99999889	39.52757000
183.03999889	61.09195000
183.07999889	80.86184000
183.11999889	104.22070000
183.15999889	127.57960000
183.19999889	143.75440000
183.23999889	159.92920000
183.27999889	161.72370000
183.31999889	154.53350000
183.35999889	138.36480000
183.39999889	129.38020000
183.43999889	122.19000000
183.47999888	116.80040000
183.51999888	109.61030000
183.55999888	102.42620000
183.59999888	88.04590000
183.63999888	62.89254000
183.67999888	62.89254000
183.71999888	80.86184000
183.75999888	91.64098000
183.79999888	86.25141000
183.83999888	86.25141000
183.87999888	97.03055000
183.91999888	88.04590000
183.95999888	53.90789000
183.99999888	3.58897700
184.03999888	-41.32816000
184.07999888	-79.06125000
184.11999888	-106.01520000
184.15999888	-138.36480000
184.19999888	-165.31880000
184.23999888	-172.50890000
184.27999888	-150.94450000
184.31999888	-129.38020000
184.35999888	-107.81580000
184.39999888	-104.22070000
184.43999888	-89.84650000
184.47999888	-79.06125000
184.51999888	-71.87719000
184.55999888	-73.67168000
184.59999888	-79.06125000
184.63999888	-79.06125000
184.67999888	-80.86184000
184.71999888	-84.45692000
184.75999888	-86.25141000
184.79999888	-88.04590000
184.83999888	-86.25141000
184.87999888	-77.26676000
184.91999888	-62.89254000
184.95999888	-50.31281000
184.99999888	-41.32816000
185.03999888	-35.93859000
185.07999888	-30.54292000
185.11999887	-28.74844000
185.15999887	-30.54292000
185.19999887	-32.34352000
185.23999887	-25.15336000
185.27999887	-10.77914000
185.31999887	7.18405700
185.35999887	26.95395000
185.39999887	46.71774000
185.43999887	68.28211000
185.47999887	89.84650000
185.51999887	111.41090000
185.55999887	131.17470000
185.59999887	145.54890000
185.63999887	156.33410000
185.67999887	152.73900000
185.71999887	147.34950000
185.75999887	136.56420000
185.79999887	131.17470000
185.83999887	129.38020000
185.87999887	122.19000000
185.91999887	115.00600000
185.95999887	107.81580000
185.99999887	104.22070000
186.03999887	97.03055000
186.07999887	91.64098000
186.11999887	89.84650000
186.15999887	86.25141000
186.19999887	80.86184000
186.23999887	68.28211000
186.27999887	52.10730000
186.31999887	28.74844000
186.35999887	0.00000000
186.39999887	-26.95395000
186.43999887	-55.70238000
186.47999887	-80.86184000
186.51999887	-107.81580000
186.55999887	-125.78510000
186.59999887	-138.36480000
186.63999887	-143.75440000
186.67999887	-131.17470000
186.71999887	-111.41090000
186.75999886	-93.44157000
186.79999886	-80.86184000
186.83999886	-71.87719000
186.87999886	-66.48762000
186.91999886	-66.48762000
186.95999886	-68.28211000
186.99999886	-71.87719000
187.03999886	-77.26676000
187.07999886	-80.86184000
187.11999886	-88.04590000
187.15999886	-93.44157000
187.19999886	-95.23605000
187.23999886	-91.64098000
187.27999886	-86.25141000
187.31999886	-73.67168000
187.35999886	-59.29746000
187.39999886	-48.51222000
187.43999886	-37.73308000
187.47999886	-30.54292000
187.51999886	-26.95395000
187.55999886	-23.35887000
187.59999886	-17.96930000
187.63999886	-10.77914000
187.67999886	0.00000000
187.71999886	14.37422000
187.75999886	30.54292000
187.79999886	50.31281000
187.83999886	70.07660000
187.87999886	91.64098000
187.91999886	111.41090000
187.95999886	132.97520000
187.99999886	147.34950000
188.03999886	158.12860000
188.07999886	154.53350000
188.11999886	145.54890000
188.15999886	132.97520000
188.19999886	125.78510000
188.23999886	120.39550000
188.27999886	115.00600000
188.31999886	107.81580000
188.35999886	104.22070000
188.39999886	104.22070000
188.43999885	100.62560000
188.47999885	98.83114000
188.51999885	98.83114000
188.55999885	93.44157000
188.59999885	86.25141000
188.63999885	75.47227000
188.67999885	57.50298000
188.71999885	30.54292000
188.75999885	3.58897700
188.79999885	-25.15336000
188.83999885	-53.90789000
188.87999885	-82.65633000
188.91999885	-107.81580000
188.95999885	-125.78510000
188.99999885	-138.36480000
189.03999885	-140.15930000
189.07999885	-136.56420000
189.11999885	-98.83114000
189.15999885	-80.86184000
189.19999885	-73.67168000
189.23999885	-71.87719000
189.27999885	-68.28211000
189.31999885	-64.68703000
189.35999885	-66.48762000
189.39999885	-71.87719000
189.43999885	-75.47227000
189.47999885	-79.06125000
189.51999885	-82.65633000
189.55999885	-86.25141000
189.59999885	-89.84650000
189.63999885	-86.25141000
189.67999885	-88.04590000
189.71999885	-77.26676000
189.75999885	-66.48762000
189.79999885	-53.90789000
189.83999885	-43.12265000
189.87999885	-35.93859000
189.91999885	-28.74844000
189.95999885	-21.55827000
189.99999885	-14.37422000
190.03999885	-1.79448800
190.07999884	12.57363000
190.11999884	26.95395000
190.15999884	43.12265000
190.19999884	61.09195000
190.23999884	79.06125000
190.27999884	97.03055000
190.31999884	115.00600000
190.35999884	131.17470000
190.39999884	141.95990000
190.43999884	150.94450000
190.47999884	150.94450000
190.51999884	141.95990000
190.55999884	134.76970000
190.59999884	122.19000000
190.63999884	118.59490000
190.67999884	115.00600000
190.71999884	107.81580000
190.75999884	104.22070000
190.79999884	102.42620000
190.83999884	100.62560000
190.87999884	97.03055000
190.91999884	93.44157000
190.95999884	89.84650000
190.99999884	82.65633000
191.03999884	71.87719000
191.07999884	53.90789000
191.11999884	32.34352000
191.15999884	5.38956800
191.19999884	-21.55827000
191.23999884	-50.31281000
191.27999884	-79.06125000
191.31999884	-106.01520000
191.35999884	-125.78510000
191.39999884	-140.15930000
191.43999884	-140.15930000
191.47999884	-131.17470000
191.51999884	-109.61030000
191.55999884	-91.64098000
191.59999884	-80.86184000
191.63999884	-73.67168000
191.67999884	-71.87719000
191.71999883	-70.07660000
191.75999883	-71.87719000
191.79999883	-75.47227000
191.83999883	-75.47227000
191.87999883	-79.06125000
191.91999883	-82.65633000
191.95999883	-86.25141000
191.99999883	-86.25141000
192.03999883	-86.25141000
192.07999883	-80.86184000
192.11999883	-71.87719000
192.15999883	-59.29746000
192.19999883	-50.31281000
192.23999883	-41.32816000
192.27999883	-34.13800000
192.31999883	-28.74844000
192.35999883	-23.35887000
192.39999883	-14.37422000
192.43999883	-3.58897700
192.47999883	10.77914000
192.51999883	26.95395000
192.55999883	43.12265000
192.59999883	61.09195000
192.63999883	80.86184000
192.67999883	98.83114000
192.71999883	118.59490000
192.75999883	136.56420000
192.79999883	150.94450000
192.83999883	154.53350000
192.87999883	150.94450000
192.91999883	140.15930000
192.95999883	129.38020000
192.99999883	122.19000000
193.03999883	116.80040000
193.07999883	111.41090000
193.11999883	107.81580000
193.15999883	104.22070000
193.19999883	100.62560000
193.23999883	98.83114000
193.27999883	97.03055000
193.31999883	93.44157000
193.35999882	89.84650000
193.39999882	80.86184000
193.43999882	70.07660000
193.47999882	52.10730000
193.51999882	26.95395000
193.55999882	0.00000000
193.59999882	-28.74844000
193.63999882	-55.70238000
193.67999882	-84.45692000
193.71999882	-111.41090000
193.75999882	-131.17470000
193.79999882	-141.95990000
193.83999882	-145.54890000
193.87999882	-125.78510000
193.91999882	-109.61030000
193.95999882	-88.04590000
193.99999882	-82.65633000
194.03999882	-70.07660000
194.07999882	-66.48762000
194.11999882	-70.07660000
194.15999882	-73.67168000
194.19999882	-75.47227000
194.23999882	-73.67168000
194.27999882	-79.06125000
194.31999882	-84.45692000
194.35999882	-86.25141000
194.39999882	-88.04590000
194.43999882	-86.25141000
194.47999882	-80.86184000
194.51999882	-68.28211000
194.55999882	-57.50298000
194.59999882	-48.51222000
194.63999882	-37.73308000
194.67999882	-32.34352000
194.71999882	-28.74844000
194.75999882	-23.35887000
194.79999882	-14.37422000
194.83999882	-3.58897700
194.87999882	8.98464900
194.91999882	23.35887000
194.95999882	41.32816000
194.99999881	59.29746000
195.03999881	79.06125000
195.07999881	100.62560000
195.11999881	120.39550000
195.15999881	138.36480000
195.19999881	150.94450000
195.23999881	156.33410000
195.27999881	150.94450000
195.31999881	138.36480000
195.35999881	127.57960000
195.39999881	122.19000000
195.43999881	116.80040000
195.47999881	111.41090000
195.51999881	106.01520000
195.55999881	104.22070000
195.59999881	104.22070000
195.63999881	100.62560000
195.67999881	95.23605000
195.71999881	91.64098000
195.75999881	88.04590000
195.79999881	80.86184000
195.83999881	68.28211000
195.87999881	48.51222000
195.91999881	21.55827000
195.95999881	-5.38956800
195.99999881	-34.13800000
196.03999881	-61.09195000
196.07999881	-89.84650000
196.11999881	-116.80040000
196.15999881	-134.76970000
196.19999881	-147.34950000
196.23999881	-143.75440000
196.27999881	-129.38020000
196.31999881	-109.61030000
196.35999881	-93.44157000
196.39999881	-84.45692000
196.43999881	-77.26676000
196.47999881	-73.67168000
196.51999881	-73.67168000
196.55999881	-73.67168000
196.59999881	-77.26676000
196.63999880	-79.06125000
196.67999880	-82.65633000
196.71999880	-86.25141000
196.75999880	-88.04590000
196.79999880	-89.84650000
196.83999880	-88.04590000
196.87999880	-82.65633000
196.91999880	-70.07660000
196.95999880	-59.29746000
196.99999880	-50.31281000
197.03999880	-39.52757000
197.07999880	-34.13800000
197.11999880	-28.74844000
197.15999880	-21.55827000
197.19999880	-14.37422000
197.23999880	-1.79448800
197.27999880	10.77914000
197.31999880	26.95395000
197.35999880	43.12265000
197.39999880	61.09195000
197.43999880	79.06125000
197.47999880	98.83114000
197.51999880	116.80040000
197.55999880	136.56420000
197.59999880	145.54890000
197.63999880	156.33410000
197.67999880	149.14400000
197.71999880	140.15930000
197.75999880	127.57960000
197.79999880	120.39550000
197.83999880	115.00600000
197.87999880	109.61030000
197.91999880	104.22070000
197.95999880	102.42620000
197.99999880	98.83114000
198.03999880	95.23605000
198.07999880	91.64098000
198.11999880	91.64098000
198.15999880	86.25141000
198.19999880	77.26676000
198.23999880	64.68703000
198.27999879	44.92325000
198.31999879	19.76379000
198.35999879	-7.18405700
198.39999879	-35.93859000
198.43999879	-62.89254000
198.47999879	-89.84650000
198.51999879	-115.00600000
198.55999879	-132.97520000
198.59999879	-145.54890000
198.63999879	-147.34950000
198.67999879	-141.95990000
198.71999879	-134.76970000
198.75999879	-127.57960000
198.79999879	-115.00600000
198.83999879	-95.23605000
198.87999879	-80.86184000
198.91999879	-79.06125000
198.95999879	-57.50298000
198.99999879	-35.93859000
199.03999879	-32.34352000
199.07999879	-37.73308000
199.11999879	-50.31281000
199.15999879	-62.89254000
199.19999879	-75.47227000
199.23999879	-88.04590000
199.27999879	-89.84650000
199.31999879	-88.04590000
199.35999879	-80.86184000
199.39999879	-71.87719000
199.43999879	-59.29746000
199.47999879	-48.51222000
199.51999879	-44.92325000
199.55999879	-39.52757000
199.59999879	-28.74844000
199.63999879	-14.37422000
199.67999879	0.00000000
199.71999879	16.16870000
199.75999879	34.13800000
199.79999879	53.90789000
199.83999879	75.47227000
199.87999879	97.03055000
199.91999878	120.39550000
199.95999878	143.75440000
199.99999878	158.12860000
200.03999878	170.70830000
200.07999878	165.31880000
200.11999878	156.33410000
