Time	Channel A
(us)	(mV)

0.00000000	122.19000000
0.04000000	122.19000000
0.08000000	115.00600000
0.12000000	107.81580000
0.16000000	104.22070000
0.20000000	100.62560000
0.24000000	95.23605000
0.28000000	93.44157000
0.32000000	91.64098000
0.36000000	91.64098000
0.40000000	88.04590000
0.44000000	80.86184000
0.48000000	66.48762000
0.52000000	43.12265000
0.56000000	12.57363000
0.60000000	-19.76379000
0.64000000	-48.51222000
0.68000000	-79.06125000
0.72000000	-109.61030000
0.76000000	-132.97520000
0.80000000	-147.34950000
0.83999999	-156.33410000
0.87999999	-141.95990000
0.91999999	-127.57960000
0.95999999	-100.62560000
0.99999999	-89.84650000
1.03999999	-79.06125000
1.07999999	-73.67168000
1.11999999	-71.87719000
1.15999999	-73.67168000
1.19999999	-77.26676000
1.23999999	-79.06125000
1.27999999	-82.65633000
1.31999999	-88.04590000
1.35999999	-93.44157000
1.39999999	-97.03055000
1.43999999	-98.83114000
1.47999999	-95.23605000
1.51999999	-86.25141000
1.55999999	-73.67168000
1.59999999	-61.09195000
1.63999999	-52.10730000
1.67999999	-44.92325000
1.71999999	-39.52757000
1.75999999	-35.93859000
1.79999999	-32.34352000
1.83999999	-25.15336000
1.87999999	-17.96930000
1.91999999	-8.98464900
1.95999999	1.79448800
1.99999999	17.96930000
2.03999999	35.93859000
2.07999999	57.50298000
2.11999999	77.26676000
2.15999999	100.62560000
2.19999999	120.39550000
2.23999999	138.36480000
2.27999999	149.14400000
2.31999999	161.72370000
2.35999999	145.54890000
2.39999999	132.97520000
2.43999999	118.59490000
2.47999998	118.59490000
2.51999998	111.41090000
2.55999998	107.81580000
2.59999998	102.42620000
2.63999998	100.62560000
2.67999998	98.83114000
2.71999998	95.23605000
2.75999998	93.44157000
2.79999998	93.44157000
2.83999998	88.04590000
2.87999998	79.06125000
2.91999998	61.09195000
2.95999998	44.92325000
2.99999998	17.96930000
3.03999998	-10.77914000
3.07999998	-41.32816000
3.11999998	-73.67168000
3.15999998	-102.42620000
3.19999998	-127.57960000
3.23999998	-143.75440000
3.27999998	-149.14400000
3.31999998	-141.95990000
3.35999998	-123.99060000
3.39999998	-107.81580000
3.43999998	-93.44157000
3.47999998	-82.65633000
3.51999998	-77.26676000
3.55999998	-73.67168000
3.59999998	-73.67168000
3.63999998	-77.26676000
3.67999998	-79.06125000
3.71999998	-80.86184000
3.75999998	-84.45692000
3.79999998	-89.84650000
3.83999998	-91.64098000
3.87999998	-91.64098000
3.91999998	-88.04590000
3.95999998	-80.86184000
3.99999998	-68.28211000
4.03999998	-59.29746000
4.07999998	-50.31281000
4.11999997	-43.12265000
4.15999997	-37.73308000
4.19999997	-32.34352000
4.23999997	-30.54292000
4.27999997	-21.55827000
4.31999997	-14.37422000
4.35999997	0.00000000
4.39999997	12.57363000
4.43999997	30.54292000
4.47999997	52.10730000
4.51999997	71.87719000
4.55999997	89.84650000
4.59999997	107.81580000
4.63999997	127.57960000
4.67999997	143.75440000
4.71999997	154.53350000
4.75999997	152.73900000
4.79999997	141.95990000
4.83999997	125.78510000
4.87999997	120.39550000
4.91999997	118.59490000
4.95999997	113.20540000
4.99999997	106.01520000
5.03999997	104.22070000
5.07999997	102.42620000
5.11999997	100.62560000
5.15999997	97.03055000
5.19999997	95.23605000
5.23999997	91.64098000
5.27999997	86.25141000
5.31999997	79.06125000
5.35999997	62.89254000
5.39999997	41.32816000
5.43999997	12.57363000
5.47999997	-17.96930000
5.51999997	-48.51222000
5.55999997	-79.06125000
5.59999997	-107.81580000
5.63999997	-129.38020000
5.67999997	-147.34950000
5.71999997	-158.12860000
5.75999996	-150.94450000
5.79999996	-138.36480000
5.83999996	-122.19000000
5.87999996	-109.61030000
5.91999996	-97.03055000
5.95999996	-88.04590000
5.99999996	-82.65633000
6.03999996	-82.65633000
6.07999996	-82.65633000
6.11999996	-82.65633000
6.15999996	-82.65633000
6.19999996	-86.25141000
6.23999996	-89.84650000
6.27999996	-91.64098000
6.31999996	-93.44157000
6.35999996	-89.84650000
6.39999996	-82.65633000
6.43999996	-71.87719000
6.47999996	-64.68703000
6.51999996	-53.90789000
6.55999996	-46.71774000
6.59999996	-39.52757000
6.63999996	-34.13800000
6.67999996	-28.74844000
6.71999996	-17.96930000
6.75999996	-8.98464900
6.79999996	0.00000000
6.83999996	14.37422000
6.87999996	28.74844000
6.91999996	44.92325000
6.95999996	62.89254000
6.99999996	80.86184000
7.03999996	100.62560000
7.07999996	120.39550000
7.11999996	134.76970000
7.15999996	147.34950000
7.19999996	152.73900000
7.23999996	141.95990000
7.27999996	129.38020000
7.31999996	118.59490000
7.35999996	118.59490000
7.39999996	115.00600000
7.43999995	107.81580000
7.47999995	104.22070000
7.51999995	100.62560000
7.55999995	97.03055000
7.59999995	91.64098000
7.63999995	91.64098000
7.67999995	86.25141000
7.71999995	79.06125000
7.75999995	70.07660000
7.79999995	57.50298000
7.83999995	34.13800000
7.87999995	-7.18405700
7.91999995	-28.74844000
7.95999995	-46.71774000
7.99999995	-79.06125000
8.03999995	-111.41090000
8.07999995	-132.97520000
8.11999995	-147.34950000
8.15999995	-147.34950000
8.19999995	-147.34950000
8.23999995	-125.78510000
8.27999995	-104.22070000
8.31999995	-86.25141000
8.35999995	-73.67168000
8.39999995	-68.28211000
8.43999995	-66.48762000
8.47999995	-68.28211000
8.51999995	-71.87719000
8.55999995	-75.47227000
8.59999995	-77.26676000
8.63999995	-82.65633000
8.67999995	-88.04590000
8.71999995	-91.64098000
8.75999995	-91.64098000
8.79999995	-89.84650000
8.83999995	-82.65633000
8.87999995	-71.87719000
8.91999995	-61.09195000
8.95999995	-52.10730000
8.99999995	-46.71774000
9.03999995	-39.52757000
9.07999994	-41.32816000
9.11999994	-34.13800000
9.15999994	-30.54292000
9.19999994	-19.76379000
9.23999994	-7.18405700
9.27999994	7.18405700
9.31999994	26.95395000
9.35999994	46.71774000
9.39999994	70.07660000
9.43999994	98.83114000
9.47999994	120.39550000
9.51999994	141.95990000
9.55999994	156.33410000
9.59999994	165.31880000
9.63999994	150.94450000
9.67999994	136.56420000
9.71999994	125.78510000
9.75999994	125.78510000
9.79999994	118.59490000
9.83999994	109.61030000
9.87999994	106.01520000
9.91999994	102.42620000
9.95999994	98.83114000
9.99999994	95.23605000
10.03999994	95.23605000
10.07999994	97.03055000
10.11999994	93.44157000
10.15999994	88.04590000
10.19999994	79.06125000
10.23999994	59.29746000
10.27999994	32.34352000
10.31999994	1.79448800
10.35999994	-26.95395000
10.39999994	-59.29746000
10.43999994	-89.84650000
10.47999994	-116.80040000
10.51999994	-140.15930000
10.55999994	-156.33410000
10.59999994	-163.51820000
10.63999994	-149.14400000
10.67999994	-127.57960000
10.71999993	-93.44157000
10.75999993	-80.86184000
10.79999993	-66.48762000
10.83999993	-66.48762000
10.87999993	-64.68703000
10.91999993	-66.48762000
10.95999993	-70.07660000
10.99999993	-73.67168000
11.03999993	-77.26676000
11.07999993	-80.86184000
11.11999993	-86.25141000
11.15999993	-91.64098000
11.19999993	-91.64098000
11.23999993	-86.25141000
11.27999993	-75.47227000
11.31999993	-64.68703000
11.35999993	-52.10730000
11.39999993	-43.12265000
11.43999993	-35.93859000
11.47999993	-30.54292000
11.51999993	-28.74844000
11.55999993	-23.35887000
11.59999993	-17.96930000
11.63999993	-8.98464900
11.67999993	1.79448800
11.71999993	17.96930000
11.75999993	34.13800000
11.79999993	53.90789000
11.83999993	75.47227000
11.87999993	100.62560000
11.91999993	122.19000000
11.95999993	141.95990000
11.99999993	158.12860000
12.03999993	158.12860000
12.07999993	149.14400000
12.11999993	131.17470000
12.15999993	123.99060000
12.19999993	122.19000000
12.23999993	116.80040000
12.27999993	107.81580000
12.31999993	104.22070000
12.35999992	100.62560000
12.39999992	97.03055000
12.43999992	93.44157000
12.47999992	93.44157000
12.51999992	93.44157000
12.55999992	88.04590000
12.59999992	80.86184000
12.63999992	66.48762000
12.67999992	43.12265000
12.71999992	14.37422000
12.75999992	-21.55827000
12.79999992	-48.51222000
12.83999992	-77.26676000
12.87999992	-106.01520000
12.91999992	-129.38020000
12.95999992	-150.94450000
12.99999992	-154.53350000
13.03999992	-158.12860000
13.07999992	-136.56420000
13.11999992	-120.39550000
13.15999992	-102.42620000
13.19999992	-93.44157000
13.23999992	-82.65633000
13.27999992	-79.06125000
13.31999992	-79.06125000
13.35999992	-80.86184000
13.39999992	-82.65633000
13.43999992	-82.65633000
13.47999992	-88.04590000
13.51999992	-91.64098000
13.55999992	-93.44157000
13.59999992	-95.23605000
13.63999992	-91.64098000
13.67999992	-84.45692000
13.71999992	-71.87719000
13.75999992	-62.89254000
13.79999992	-52.10730000
13.83999992	-43.12265000
13.87999992	-37.73308000
13.91999992	-30.54292000
13.95999992	-26.95395000
13.99999991	-19.76379000
14.03999991	-10.77914000
14.07999991	0.00000000
14.11999991	12.57363000
14.15999991	26.95395000
14.19999991	43.12265000
14.23999991	61.09195000
14.27999991	80.86184000
14.31999991	102.42620000
14.35999991	122.19000000
14.39999991	141.95990000
14.43999991	150.94450000
14.47999991	156.33410000
14.51999991	140.15930000
14.55999991	129.38020000
14.59999991	120.39550000
14.63999991	118.59490000
14.67999991	113.20540000
14.71999991	106.01520000
14.75999991	104.22070000
14.79999991	102.42620000
14.83999991	98.83114000
14.87999991	93.44157000
14.91999991	91.64098000
14.95999991	89.84650000
14.99999991	84.45692000
15.03999991	73.67168000
15.07999991	57.50298000
15.11999991	32.34352000
15.15999991	5.38956800
15.19999991	-25.15336000
15.23999991	-53.90789000
15.27999991	-82.65633000
15.31999991	-109.61030000
15.35999991	-131.17470000
15.39999991	-145.54890000
15.43999991	-156.33410000
15.47999991	-149.14400000
15.51999991	-129.38020000
15.55999991	-109.61030000
15.59999991	-93.44157000
15.63999990	-84.45692000
15.67999990	-77.26676000
15.71999990	-75.47227000
15.75999990	-75.47227000
15.79999990	-79.06125000
15.83999990	-80.86184000
15.87999990	-86.25141000
15.91999990	-89.84650000
15.95999990	-93.44157000
15.99999990	-97.03055000
16.03999990	-98.83114000
16.07999990	-95.23605000
16.11999990	-88.04590000
16.15999990	-75.47227000
16.19999990	-64.68703000
16.23999990	-57.50298000
16.27999990	-50.31281000
16.31999990	-43.12265000
16.35999990	-37.73308000
16.39999990	-30.54292000
16.43999990	-23.35887000
16.47999990	-14.37422000
16.51999990	-3.58897700
16.55999990	8.98464900
16.59999990	26.95395000
16.63999990	44.92325000
16.67999990	64.68703000
16.71999990	86.25141000
16.75999990	107.81580000
16.79999990	127.57960000
16.83999990	143.75440000
16.87999990	156.33410000
16.91999990	154.53350000
16.95999990	143.75440000
16.99999990	127.57960000
17.03999990	122.19000000
17.07999990	118.59490000
17.11999990	113.20540000
17.15999990	107.81580000
17.19999990	104.22070000
17.23999990	100.62560000
17.27999989	97.03055000
17.31999989	93.44157000
17.35999989	93.44157000
17.39999989	93.44157000
17.43999989	91.64098000
17.47999989	86.25141000
17.51999989	75.47227000
17.55999989	55.70238000
17.59999989	30.54292000
17.63999989	1.79448800
17.67999989	-37.73308000
17.71999989	-95.23605000
17.75999989	-129.38020000
17.79999989	-145.54890000
17.83999989	-165.31880000
17.87999989	-188.67760000
17.91999989	-168.91380000
17.95999989	-140.15930000
17.99999989	-102.42620000
18.03999989	-88.04590000
18.07999989	-77.26676000
18.11999989	-66.48762000
18.15999989	-59.29746000
18.19999989	-61.09195000
18.23999989	-68.28211000
18.27999989	-71.87719000
18.31999989	-80.86184000
18.35999989	-82.65633000
18.39999989	-82.65633000
18.43999989	-88.04590000
18.47999989	-91.64098000
18.51999989	-88.04590000
18.55999989	-77.26676000
18.59999989	-66.48762000
18.63999989	-61.09195000
18.67999989	-55.70238000
18.71999989	-50.31281000
18.75999989	-46.71774000
18.79999989	-44.92325000
18.83999989	-41.32816000
18.87999989	-35.93859000
18.91999989	-25.15336000
18.95999988	-10.77914000
18.99999988	7.18405700
19.03999988	28.74844000
19.07999988	50.31281000
19.11999988	71.87719000
19.15999988	93.44157000
19.19999988	115.00600000
19.23999988	131.17470000
19.27999988	141.95990000
19.31999988	150.94450000
19.35999988	156.33410000
19.39999988	138.36480000
19.43999988	129.38020000
19.47999988	120.39550000
19.51999988	118.59490000
19.55999988	113.20540000
19.59999988	107.81580000
19.63999988	104.22070000
19.67999988	100.62560000
19.71999988	93.44157000
19.75999988	89.84650000
19.79999988	91.64098000
19.83999988	89.84650000
19.87999988	84.45692000
19.91999988	75.47227000
19.95999988	66.48762000
19.99999988	46.71774000
20.03999988	19.76379000
20.07999988	-8.98464900
20.11999988	-35.93859000
20.15999988	-66.48762000
20.19999988	-95.23605000
20.23999988	-120.39550000
20.27999988	-140.15930000
20.31999988	-150.94450000
20.35999988	-149.14400000
20.39999988	-136.56420000
20.43999988	-97.03055000
20.47999988	-75.47227000
20.51999988	-59.29746000
20.55999988	-62.89254000
20.59999987	-59.29746000
20.63999987	-62.89254000
20.67999987	-66.48762000
20.71999987	-71.87719000
20.75999987	-73.67168000
20.79999987	-79.06125000
20.83999987	-86.25141000
20.87999987	-89.84650000
20.91999987	-91.64098000
20.95999987	-88.04590000
20.99999987	-80.86184000
21.03999987	-66.48762000
21.07999987	-52.10730000
21.11999987	-43.12265000
21.15999987	-35.93859000
21.19999987	-32.34352000
21.23999987	-28.74844000
21.27999987	-28.74844000
21.31999987	-23.35887000
21.35999987	-16.16870000
21.39999987	-3.58897700
21.43999987	10.77914000
21.47999987	26.95395000
21.51999987	48.51222000
21.55999987	71.87719000
21.59999987	97.03055000
21.63999987	122.19000000
21.67999987	143.75440000
21.71999987	158.12860000
21.75999987	161.72370000
21.79999987	150.94450000
21.83999987	132.97520000
21.87999987	125.78510000
21.91999987	125.78510000
21.95999987	118.59490000
21.99999987	111.41090000
22.03999987	107.81580000
22.07999987	104.22070000
22.11999987	100.62560000
22.15999987	98.83114000
22.19999987	98.83114000
22.23999986	98.83114000
22.27999986	95.23605000
22.31999986	91.64098000
22.35999986	79.06125000
22.39999986	61.09195000
22.43999986	34.13800000
22.47999986	7.18405700
22.51999986	-23.35887000
22.55999986	-55.70238000
22.59999986	-89.84650000
22.63999986	-115.00600000
22.67999986	-136.56420000
22.71999986	-152.73900000
22.75999986	-156.33410000
22.79999986	-154.53350000
22.83999986	-140.15930000
22.87999986	-118.59490000
22.91999986	-102.42620000
22.95999986	-84.45692000
22.99999986	-75.47227000
23.03999986	-66.48762000
23.07999986	-64.68703000
23.11999986	-61.09195000
23.15999986	-64.68703000
23.19999986	-70.07660000
23.23999986	-73.67168000
23.27999986	-79.06125000
23.31999986	-84.45692000
23.35999986	-86.25141000
23.39999986	-82.65633000
23.43999986	-75.47227000
23.47999986	-64.68703000
23.51999986	-57.50298000
23.55999986	-46.71774000
23.59999986	-39.52757000
23.63999986	-32.34352000
23.67999986	-28.74844000
23.71999986	-19.76379000
23.75999986	-14.37422000
23.79999986	-3.58897700
23.83999986	7.18405700
23.87999985	23.35887000
23.91999985	37.73308000
23.95999985	57.50298000
23.99999985	77.26676000
24.03999985	100.62560000
24.07999985	122.19000000
24.11999985	143.75440000
24.15999985	158.12860000
24.19999985	158.12860000
24.23999985	149.14400000
24.27999985	127.57960000
24.31999985	120.39550000
24.35999985	118.59490000
24.39999985	113.20540000
24.43999985	107.81580000
24.47999985	104.22070000
24.51999985	98.83114000
24.55999985	95.23605000
24.59999985	91.64098000
24.63999985	91.64098000
24.67999985	91.64098000
24.71999985	84.45692000
24.75999985	75.47227000
24.79999985	61.09195000
24.83999985	35.93859000
24.87999985	5.38956800
24.91999985	-25.15336000
24.95999985	-55.70238000
24.99999985	-84.45692000
25.03999985	-111.41090000
25.07999985	-131.17470000
25.11999985	-145.54890000
25.15999985	-143.75440000
25.19999985	-134.76970000
25.23999985	-115.00600000
25.27999985	-100.62560000
25.31999985	-88.04590000
25.35999985	-79.06125000
25.39999985	-71.87719000
25.43999985	-71.87719000
25.47999985	-73.67168000
25.51999984	-77.26676000
25.55999984	-79.06125000
25.59999984	-84.45692000
25.63999984	-89.84650000
25.67999984	-95.23605000
25.71999984	-97.03055000
25.75999984	-98.83114000
25.79999984	-91.64098000
25.83999984	-80.86184000
25.87999984	-68.28211000
25.91999984	-57.50298000
25.95999984	-46.71774000
25.99999984	-37.73308000
26.03999984	-32.34352000
26.07999984	-28.74844000
26.11999984	-23.35887000
26.15999984	-14.37422000
26.19999984	-7.18405700
26.23999984	5.38956800
26.27999984	19.76379000
26.31999984	34.13800000
26.35999984	53.90789000
26.39999984	71.87719000
26.43999984	91.64098000
26.47999984	111.41090000
26.51999984	129.38020000
26.55999984	143.75440000
26.59999984	150.94450000
26.63999984	150.94450000
26.67999984	138.36480000
26.71999984	122.19000000
26.75999984	118.59490000
26.79999984	115.00600000
26.83999984	111.41090000
26.87999984	106.01520000
26.91999984	102.42620000
26.95999984	100.62560000
26.99999984	98.83114000
27.03999984	97.03055000
27.07999984	95.23605000
27.11999984	91.64098000
27.15999983	86.25141000
27.19999983	75.47227000
27.23999983	61.09195000
27.27999983	37.73308000
27.31999983	8.98464900
27.35999983	-21.55827000
27.39999983	-50.31281000
27.43999983	-79.06125000
27.47999983	-104.22070000
27.51999983	-120.39550000
27.55999983	-147.34950000
27.59999983	-140.15930000
27.63999983	-115.00600000
27.67999983	-91.64098000
27.71999983	-88.04590000
27.75999983	-80.86184000
27.79999983	-71.87719000
27.83999983	-64.68703000
27.87999983	-66.48762000
27.91999983	-71.87719000
27.95999983	-73.67168000
27.99999983	-75.47227000
28.03999983	-82.65633000
28.07999983	-86.25141000
28.11999983	-88.04590000
28.15999983	-89.84650000
28.19999983	-88.04590000
28.23999983	-80.86184000
28.27999983	-68.28211000
28.31999983	-57.50298000
28.35999983	-50.31281000
28.39999983	-41.32816000
28.43999983	-35.93859000
28.47999983	-32.34352000
28.51999983	-30.54292000
28.55999983	-25.15336000
28.59999983	-16.16870000
28.63999983	-7.18405700
28.67999983	7.18405700
28.71999983	25.15336000
28.75999983	46.71774000
28.79999982	66.48762000
28.83999982	88.04590000
28.87999982	109.61030000
28.91999982	127.57960000
28.95999982	141.95990000
28.99999982	152.73900000
29.03999982	150.94450000
29.07999982	141.95990000
29.11999982	127.57960000
29.15999982	120.39550000
29.19999982	122.19000000
29.23999982	115.00600000
29.27999982	106.01520000
29.31999982	107.81580000
29.35999982	106.01520000
29.39999982	100.62560000
29.43999982	100.62560000
29.47999982	102.42620000
29.51999982	102.42620000
29.55999982	98.83114000
29.59999982	89.84650000
29.63999982	79.06125000
29.67999982	64.68703000
29.71999982	37.73308000
29.75999982	10.77914000
29.79999982	-17.96930000
29.83999982	-48.51222000
29.87999982	-79.06125000
29.91999982	-107.81580000
29.95999982	-129.38020000
29.99999982	-149.14400000
30.03999982	-150.94450000
30.07999982	-140.15930000
30.11999982	-116.80040000
30.15999982	-98.83114000
30.19999982	-84.45692000
30.23999982	-75.47227000
30.27999982	-71.87719000
30.31999982	-70.07660000
30.35999982	-70.07660000
30.39999982	-71.87719000
30.43999982	-71.87719000
30.47999981	-75.47227000
30.51999981	-79.06125000
30.55999981	-84.45692000
30.59999981	-86.25141000
30.63999981	-86.25141000
30.67999981	-80.86184000
30.71999981	-71.87719000
30.75999981	-59.29746000
30.79999981	-50.31281000
30.83999981	-41.32816000
30.87999981	-35.93859000
30.91999981	-30.54292000
30.95999981	-25.15336000
30.99999981	-19.76379000
31.03999981	-8.98464900
31.07999981	3.58897700
31.11999981	16.16870000
31.15999981	32.34352000
31.19999981	50.31281000
31.23999981	70.07660000
31.27999981	89.84650000
31.31999981	109.61030000
31.35999981	129.38020000
31.39999981	141.95990000
31.43999981	152.73900000
31.47999981	147.34950000
31.51999981	136.56420000
31.55999981	122.19000000
31.59999981	120.39550000
31.63999981	116.80040000
31.67999981	113.20540000
31.71999981	107.81580000
31.75999981	104.22070000
31.79999981	102.42620000
31.83999981	100.62560000
31.87999981	97.03055000
31.91999981	97.03055000
31.95999981	93.44157000
31.99999981	89.84650000
32.03999981	80.86184000
32.07999981	66.48762000
32.11999980	44.92325000
32.15999980	17.96930000
32.19999980	-10.77914000
32.23999980	-39.52757000
32.27999980	-68.28211000
32.31999980	-95.23605000
32.35999980	-122.19000000
32.39999980	-141.95990000
32.43999980	-154.53350000
32.47999980	-145.54890000
32.51999980	-125.78510000
32.55999980	-93.44157000
32.59999980	-86.25141000
32.63999980	-79.06125000
32.67999980	-73.67168000
32.71999980	-68.28211000
32.75999980	-70.07660000
32.79999980	-70.07660000
32.83999980	-71.87719000
32.87999980	-73.67168000
32.91999980	-79.06125000
32.95999980	-84.45692000
32.99999980	-89.84650000
33.03999980	-89.84650000
33.07999980	-88.04590000
33.11999980	-79.06125000
33.15999980	-64.68703000
33.19999980	-53.90789000
33.23999980	-44.92325000
33.27999980	-37.73308000
33.31999980	-32.34352000
33.35999980	-28.74844000
33.39999980	-23.35887000
33.43999980	-16.16870000
33.47999980	-5.38956800
33.51999980	7.18405700
33.55999980	21.55827000
33.59999980	37.73308000
33.63999980	57.50298000
33.67999980	82.65633000
33.71999980	102.42620000
33.75999979	120.39550000
33.79999979	140.15930000
33.83999979	149.14400000
33.87999979	154.53350000
33.91999979	141.95990000
33.95999979	127.57960000
33.99999979	122.19000000
34.03999979	120.39550000
34.07999979	113.20540000
34.11999979	109.61030000
34.15999979	106.01520000
34.19999979	102.42620000
34.23999979	100.62560000
34.27999979	98.83114000
34.31999979	98.83114000
34.35999979	97.03055000
34.39999979	93.44157000
34.43999979	88.04590000
34.47999979	77.26676000
34.51999979	57.50298000
34.55999979	34.13800000
34.59999979	7.18405700
34.63999979	-19.76379000
34.67999979	-48.51222000
34.71999979	-80.86184000
34.75999979	-111.41090000
34.79999979	-134.76970000
34.83999979	-145.54890000
34.87999979	-152.73900000
34.91999979	-134.76970000
34.95999979	-113.20540000
34.99999979	-89.84650000
35.03999979	-79.06125000
35.07999979	-71.87719000
35.11999979	-66.48762000
35.15999979	-68.28211000
35.19999979	-70.07660000
35.23999979	-70.07660000
35.27999979	-71.87719000
35.31999979	-77.26676000
35.35999979	-82.65633000
35.39999978	-88.04590000
35.43999978	-89.84650000
35.47999978	-89.84650000
35.51999978	-84.45692000
35.55999978	-71.87719000
35.59999978	-59.29746000
35.63999978	-50.31281000
35.67999978	-43.12265000
35.71999978	-34.13800000
35.75999978	-34.13800000
35.79999978	-28.74844000
35.83999978	-23.35887000
35.87999978	-10.77914000
35.91999978	0.00000000
35.95999978	14.37422000
35.99999978	30.54292000
36.03999978	48.51222000
36.07999978	71.87719000
36.11999978	91.64098000
36.15999978	113.20540000
36.19999978	132.97520000
36.23999978	143.75440000
36.27999978	156.33410000
36.31999978	149.14400000
36.35999978	136.56420000
36.39999978	120.39550000
36.43999978	120.39550000
36.47999978	115.00600000
36.51999978	109.61030000
36.55999978	106.01520000
36.59999978	104.22070000
36.63999978	100.62560000
36.67999978	100.62560000
36.71999978	98.83114000
36.75999978	98.83114000
36.79999978	97.03055000
36.83999978	93.44157000
36.87999978	84.45692000
36.91999978	70.07660000
36.95999978	48.51222000
36.99999978	21.55827000
37.03999977	-7.18405700
37.07999977	-34.13800000
37.11999977	-64.68703000
37.15999977	-93.44157000
37.19999977	-120.39550000
37.23999977	-143.75440000
37.27999977	-150.94450000
37.31999977	-158.12860000
37.35999977	-125.78510000
37.39999977	-115.00600000
37.43999977	-89.84650000
37.47999977	-73.67168000
37.51999977	-64.68703000
37.55999977	-68.28211000
37.59999977	-71.87719000
37.63999977	-73.67168000
37.67999977	-71.87719000
37.71999977	-73.67168000
37.75999977	-80.86184000
37.79999977	-86.25141000
37.83999977	-88.04590000
37.87999977	-93.44157000
37.91999977	-89.84650000
37.95999977	-80.86184000
37.99999977	-68.28211000
38.03999977	-57.50298000
38.07999977	-46.71774000
38.11999977	-37.73308000
38.15999977	-32.34352000
38.19999977	-28.74844000
38.23999977	-25.15336000
38.27999977	-14.37422000
38.31999977	-7.18405700
38.35999977	7.18405700
38.39999977	21.55827000
38.43999977	35.93859000
38.47999977	55.70238000
38.51999977	75.47227000
38.55999977	95.23605000
38.59999977	116.80040000
38.63999977	136.56420000
38.67999976	145.54890000
38.71999976	156.33410000
38.75999976	145.54890000
38.79999976	132.97520000
38.83999976	122.19000000
38.87999976	120.39550000
38.91999976	115.00600000
38.95999976	111.41090000
38.99999976	106.01520000
39.03999976	102.42620000
39.07999976	100.62560000
39.11999976	97.03055000
39.15999976	95.23605000
39.19999976	95.23605000
39.23999976	93.44157000
39.27999976	86.25141000
39.31999976	75.47227000
39.35999976	57.50298000
39.39999976	34.13800000
39.43999976	5.38956800
39.47999976	-21.55827000
39.51999976	-50.31281000
39.55999976	-77.26676000
39.59999976	-107.81580000
39.63999976	-127.57960000
39.67999976	-145.54890000
39.71999976	-141.95990000
39.75999976	-136.56420000
39.79999976	-109.61030000
39.83999976	-97.03055000
39.87999976	-86.25141000
39.91999976	-80.86184000
39.95999976	-75.47227000
39.99999976	-73.67168000
40.03999976	-75.47227000
40.07999976	-77.26676000
40.11999976	-80.86184000
40.15999976	-95.23605000
40.19999976	-120.39550000
40.23999976	-123.99060000
40.27999976	-102.42620000
40.31999975	-88.04590000
40.35999975	-80.86184000
40.39999975	-64.68703000
40.43999975	-25.15336000
40.47999975	1.79448800
40.51999975	3.58897700
40.55999975	-10.77914000
40.59999975	-23.35887000
40.63999975	-25.15336000
40.67999975	-19.76379000
40.71999975	-21.55827000
40.75999975	-25.15336000
40.79999975	-14.37422000
40.83999975	12.57363000
40.87999975	35.93859000
40.91999975	53.90789000
40.95999975	66.48762000
40.99999975	86.25141000
41.03999975	113.20540000
41.07999975	132.97520000
41.11999975	138.36480000
41.15999975	145.54890000
41.19999975	136.56420000
41.23999975	129.38020000
41.27999975	118.59490000
41.31999975	118.59490000
41.35999975	115.00600000
41.39999975	113.20540000
41.43999975	115.00600000
41.47999975	118.59490000
41.51999975	115.00600000
41.55999975	107.81580000
41.59999975	100.62560000
41.63999975	97.03055000
41.67999975	88.04590000
41.71999975	77.26676000
41.75999975	59.29746000
41.79999975	39.52757000
41.83999975	17.96930000
41.87999975	-8.98464900
41.91999975	-34.13800000
41.95999974	-61.09195000
41.99999974	-88.04590000
42.03999974	-113.20540000
42.07999974	-131.17470000
42.11999974	-143.75440000
42.15999974	-145.54890000
42.19999974	-122.19000000
42.23999974	-95.23605000
42.27999974	-75.47227000
42.31999974	-68.28211000
42.35999974	-62.89254000
42.39999974	-53.90789000
42.43999974	-55.70238000
42.47999974	-61.09195000
42.51999974	-66.48762000
42.55999974	-71.87719000
42.59999974	-79.06125000
42.63999974	-86.25141000
42.67999974	-91.64098000
42.71999974	-93.44157000
42.75999974	-91.64098000
42.79999974	-82.65633000
42.83999974	-70.07660000
42.87999974	-57.50298000
42.91999974	-46.71774000
42.95999974	-39.52757000
42.99999974	-34.13800000
43.03999974	-28.74844000
43.07999974	-25.15336000
43.11999974	-19.76379000
43.15999974	-8.98464900
43.19999974	3.58897700
43.23999974	16.16870000
43.27999974	34.13800000
43.31999974	53.90789000
43.35999974	75.47227000
43.39999974	97.03055000
43.43999974	118.59490000
43.47999974	140.15930000
43.51999974	149.14400000
43.55999974	158.12860000
43.59999974	143.75440000
43.63999973	132.97520000
43.67999973	118.59490000
43.71999973	115.00600000
43.75999973	111.41090000
43.79999973	107.81580000
43.83999973	102.42620000
43.87999973	102.42620000
43.91999973	102.42620000
43.95999973	104.22070000
43.99999973	100.62560000
44.03999973	97.03055000
44.07999973	97.03055000
44.11999973	93.44157000
44.15999973	84.45692000
44.19999973	66.48762000
44.23999973	41.32816000
44.27999973	14.37422000
44.31999973	-14.37422000
44.35999973	-43.12265000
44.39999973	-75.47227000
44.43999973	-104.22070000
44.47999973	-129.38020000
44.51999973	-149.14400000
44.55999973	-156.33410000
44.59999973	-154.53350000
44.63999973	-136.56420000
44.67999973	-104.22070000
44.71999973	-84.45692000
44.75999973	-66.48762000
44.79999973	-66.48762000
44.83999973	-62.89254000
44.87999973	-64.68703000
44.91999973	-64.68703000
44.95999973	-66.48762000
44.99999973	-71.87719000
45.03999973	-73.67168000
45.07999973	-79.06125000
45.11999973	-86.25141000
45.15999973	-86.25141000
45.19999973	-84.45692000
45.23999973	-75.47227000
45.27999972	-64.68703000
45.31999972	-52.10730000
45.35999972	-43.12265000
45.39999972	-37.73308000
45.43999972	-32.34352000
45.47999972	-28.74844000
45.51999972	-17.96930000
45.55999972	-8.98464900
45.59999972	1.79448800
45.63999972	14.37422000
45.67999972	30.54292000
45.71999972	46.71774000
45.75999972	64.68703000
45.79999972	84.45692000
45.83999972	106.01520000
45.87999972	127.57960000
45.91999972	141.95990000
45.95999972	154.53350000
45.99999972	150.94450000
46.03999972	141.95990000
46.07999972	127.57960000
46.11999972	120.39550000
46.15999972	116.80040000
46.19999972	113.20540000
46.23999972	107.81580000
46.27999972	102.42620000
46.31999972	100.62560000
46.35999972	95.23605000
46.39999972	91.64098000
46.43999972	93.44157000
46.47999972	89.84650000
46.51999972	86.25141000
46.55999972	77.26676000
46.59999972	62.89254000
46.63999972	37.73308000
46.67999972	8.98464900
46.71999972	-19.76379000
46.75999972	-48.51222000
46.79999972	-75.47227000
46.83999972	-104.22070000
46.87999972	-129.38020000
46.91999971	-147.34950000
46.95999971	-152.73900000
46.99999971	-158.12860000
47.03999971	-127.57960000
47.07999971	-102.42620000
47.11999971	-82.65633000
47.15999971	-75.47227000
47.19999971	-62.89254000
47.23999971	-70.07660000
47.27999971	-79.06125000
47.31999971	-68.28211000
47.35999971	-64.68703000
47.39999971	-71.87719000
47.43999971	-84.45692000
47.47999971	-88.04590000
47.51999971	-89.84650000
47.55999971	-89.84650000
47.59999971	-91.64098000
47.63999971	-80.86184000
47.67999971	-64.68703000
47.71999971	-53.90789000
47.75999971	-43.12265000
47.79999971	-35.93859000
47.83999971	-28.74844000
47.87999971	-25.15336000
47.91999971	-21.55827000
47.95999971	-12.57363000
47.99999971	-3.58897700
48.03999971	8.98464900
48.07999971	21.55827000
48.11999971	39.52757000
48.15999971	57.50298000
48.19999971	77.26676000
48.23999971	98.83114000
48.27999971	120.39550000
48.31999971	138.36480000
48.35999971	150.94450000
48.39999971	152.73900000
48.43999971	143.75440000
48.47999971	129.38020000
48.51999971	120.39550000
48.55999970	116.80040000
48.59999970	113.20540000
48.63999970	107.81580000
48.67999970	102.42620000
48.71999970	100.62560000
48.75999970	97.03055000
48.79999970	93.44157000
48.83999970	93.44157000
48.87999970	93.44157000
48.91999970	89.84650000
48.95999970	82.65633000
48.99999970	70.07660000
49.03999970	48.51222000
49.07999970	19.76379000
49.11999970	-10.77914000
49.15999970	-39.52757000
49.19999970	-70.07660000
49.23999970	-100.62560000
49.27999970	-122.19000000
49.31999970	-149.14400000
49.35999970	-159.92920000
49.39999970	-165.31880000
49.43999970	-149.14400000
49.47999970	-123.99060000
49.51999970	-89.84650000
49.55999970	-68.28211000
49.59999970	-62.89254000
49.63999970	-64.68703000
49.67999970	-61.09195000
49.71999970	-62.89254000
49.75999970	-68.28211000
49.79999970	-73.67168000
49.83999970	-79.06125000
49.87999970	-82.65633000
49.91999970	-89.84650000
49.95999970	-93.44157000
49.99999970	-93.44157000
50.03999970	-86.25141000
50.07999970	-75.47227000
50.11999970	-61.09195000
50.15999970	-48.51222000
50.19999969	-39.52757000
50.23999969	-35.93859000
50.27999969	-30.54292000
50.31999969	-25.15336000
50.35999969	-21.55827000
50.39999969	-10.77914000
50.43999969	1.79448800
50.47999969	16.16870000
50.51999969	30.54292000
50.55999969	48.51222000
50.59999969	68.28211000
50.63999969	89.84650000
50.67999969	115.00600000
50.71999969	136.56420000
50.75999969	147.34950000
50.79999969	163.51820000
50.83999969	147.34950000
50.87999969	136.56420000
50.91999969	120.39550000
50.95999969	118.59490000
50.99999969	115.00600000
51.03999969	109.61030000
51.07999969	102.42620000
51.11999969	100.62560000
51.15999969	95.23605000
51.19999969	93.44157000
51.23999969	91.64098000
51.27999969	91.64098000
51.31999969	91.64098000
51.35999969	84.45692000
51.39999969	73.67168000
51.43999969	53.90789000
51.47999969	25.15336000
51.51999969	-7.18405700
51.55999969	-34.13800000
51.59999969	-64.68703000
51.63999969	-93.44157000
51.67999969	-120.39550000
51.71999969	-143.75440000
51.75999969	-152.73900000
51.79999969	-154.53350000
51.83999968	-138.36480000
51.87999968	-100.62560000
51.91999968	-71.87719000
51.95999968	-59.29746000
51.99999968	-61.09195000
52.03999968	-57.50298000
52.07999968	-59.29746000
52.11999968	-68.28211000
52.15999968	-71.87719000
52.19999968	-73.67168000
52.23999968	-71.87719000
52.27999968	-82.65633000
52.31999968	-88.04590000
52.35999968	-93.44157000
52.39999968	-91.64098000
52.43999968	-86.25141000
52.47999968	-70.07660000
52.51999968	-55.70238000
52.55999968	-44.92325000
52.59999968	-35.93859000
52.63999968	-30.54292000
52.67999968	-30.54292000
52.71999968	-28.74844000
52.75999968	-23.35887000
52.79999968	-14.37422000
52.83999968	0.00000000
52.87999968	12.57363000
52.91999968	28.74844000
52.95999968	48.51222000
52.99999968	70.07660000
53.03999968	93.44157000
53.07999968	118.59490000
53.11999968	140.15930000
53.15999968	154.53350000
53.19999968	158.12860000
53.23999968	149.14400000
53.27999968	132.97520000
53.31999968	122.19000000
53.35999968	118.59490000
53.39999968	115.00600000
53.43999968	107.81580000
53.47999967	104.22070000
53.51999967	98.83114000
53.55999967	97.03055000
53.59999967	93.44157000
53.63999967	95.23605000
53.67999967	97.03055000
53.71999967	97.03055000
53.75999967	91.64098000
53.79999967	80.86184000
53.83999967	64.68703000
53.87999967	35.93859000
53.91999967	7.18405700
53.95999967	-23.35887000
53.99999967	-53.90789000
54.03999967	-86.25141000
54.07999967	-113.20540000
54.11999967	-132.97520000
54.15999967	-147.34950000
54.19999967	-141.95990000
54.23999967	-134.76970000
54.27999967	-109.61030000
54.31999967	-93.44157000
54.35999967	-79.06125000
54.39999967	-70.07660000
54.43999967	-68.28211000
54.47999967	-70.07660000
54.51999967	-71.87719000
54.55999967	-71.87719000
54.59999967	-73.67168000
54.63999967	-79.06125000
54.67999967	-84.45692000
54.71999967	-88.04590000
54.75999967	-88.04590000
54.79999967	-86.25141000
54.83999967	-80.86184000
54.87999967	-68.28211000
54.91999967	-55.70238000
54.95999967	-46.71774000
54.99999967	-37.73308000
55.03999967	-35.93859000
55.07999967	-30.54292000
55.11999967	-28.74844000
55.15999966	-17.96930000
55.19999966	-7.18405700
55.23999966	7.18405700
55.27999966	21.55827000
55.31999966	35.93859000
55.35999966	53.90789000
55.39999966	71.87719000
55.43999966	93.44157000
55.47999966	111.41090000
55.51999966	129.38020000
55.55999966	141.95990000
55.59999966	150.94450000
55.63999966	143.75440000
55.67999966	132.97520000
55.71999966	118.59490000
55.75999966	115.00600000
55.79999966	111.41090000
55.83999966	109.61030000
55.87999966	106.01520000
55.91999966	102.42620000
55.95999966	100.62560000
55.99999966	100.62560000
56.03999966	97.03055000
56.07999966	97.03055000
56.11999966	93.44157000
56.15999966	89.84650000
56.19999966	80.86184000
56.23999966	66.48762000
56.27999966	43.12265000
56.31999966	14.37422000
56.35999966	-14.37422000
56.39999966	-43.12265000
56.43999966	-71.87719000
56.47999966	-102.42620000
56.51999966	-127.57960000
56.55999966	-141.95990000
56.59999966	-154.53350000
56.63999966	-138.36480000
56.67999966	-122.19000000
56.71999966	-93.44157000
56.75999966	-82.65633000
56.79999965	-71.87719000
56.83999965	-66.48762000
56.87999965	-70.07660000
56.91999965	-70.07660000
56.95999965	-71.87719000
56.99999965	-71.87719000
57.03999965	-71.87719000
57.07999965	-82.65633000
57.11999965	-95.23605000
57.15999965	-88.04590000
57.19999965	-80.86184000
57.23999965	-80.86184000
57.27999965	-77.26676000
57.31999965	-66.48762000
57.35999965	-53.90789000
57.39999965	-43.12265000
57.43999965	-37.73308000
57.47999965	-35.93859000
57.51999965	-28.74844000
57.55999965	-25.15336000
57.59999965	-14.37422000
57.63999965	0.00000000
57.67999965	14.37422000
57.71999965	28.74844000
57.75999965	48.51222000
57.79999965	71.87719000
57.83999965	91.64098000
57.87999965	111.41090000
57.91999965	131.17470000
57.95999965	143.75440000
57.99999965	156.33410000
58.03999965	145.54890000
58.07999965	136.56420000
58.11999965	120.39550000
58.15999965	116.80040000
58.19999965	115.00600000
58.23999965	107.81580000
58.27999965	106.01520000
58.31999965	102.42620000
58.35999965	102.42620000
58.39999965	98.83114000
58.43999964	97.03055000
58.47999964	98.83114000
58.51999964	97.03055000
58.55999964	93.44157000
58.59999964	86.25141000
58.63999964	75.47227000
58.67999964	52.10730000
58.71999964	26.95395000
58.75999964	-1.79448800
58.79999964	-30.54292000
58.83999964	-61.09195000
58.87999964	-91.64098000
58.91999964	-118.59490000
58.95999964	-140.15930000
58.99999964	-150.94450000
59.03999964	-150.94450000
59.07999964	-116.80040000
59.11999964	-95.23605000
59.15999964	-68.28211000
59.19999964	-71.87719000
59.23999964	-68.28211000
59.27999964	-62.89254000
59.31999964	-64.68703000
59.35999964	-66.48762000
59.39999964	-71.87719000
59.43999964	-71.87719000
59.47999964	-75.47227000
59.51999964	-82.65633000
59.55999964	-88.04590000
59.59999964	-89.84650000
59.63999964	-88.04590000
59.67999964	-79.06125000
59.71999964	-64.68703000
59.75999964	-52.10730000
59.79999964	-43.12265000
59.83999964	-37.73308000
59.87999964	-28.74844000
59.91999964	-28.74844000
59.95999964	-23.35887000
59.99999964	-16.16870000
60.03999964	-1.79448800
60.07999963	10.77914000
60.11999963	25.15336000
60.15999963	43.12265000
60.19999963	61.09195000
60.23999963	84.45692000
60.27999963	104.22070000
60.31999963	125.78510000
60.35999963	141.95990000
60.39999963	152.73900000
60.43999963	149.14400000
60.47999963	138.36480000
60.51999963	122.19000000
60.55999963	118.59490000
60.59999963	115.00600000
60.63999963	111.41090000
60.67999963	106.01520000
60.71999963	104.22070000
60.75999963	102.42620000
60.79999963	100.62560000
60.83999963	100.62560000
60.87999963	100.62560000
60.91999963	98.83114000
60.95999963	97.03055000
60.99999963	91.64098000
61.03999963	79.06125000
61.07999963	61.09195000
61.11999963	35.93859000
61.15999963	8.98464900
61.19999963	-19.76379000
61.23999963	-50.31281000
61.27999963	-79.06125000
61.31999963	-111.41090000
61.35999963	-131.17470000
61.39999963	-150.94450000
61.43999963	-145.54890000
61.47999963	-134.76970000
61.51999963	-106.01520000
61.55999963	-95.23605000
61.59999963	-86.25141000
61.63999963	-79.06125000
61.67999963	-73.67168000
61.71999962	-73.67168000
61.75999962	-75.47227000
61.79999962	-73.67168000
61.83999962	-75.47227000
61.87999962	-79.06125000
61.91999962	-84.45692000
61.95999962	-91.64098000
61.99999962	-93.44157000
62.03999962	-89.84650000
62.07999962	-80.86184000
62.11999962	-66.48762000
62.15999962	-55.70238000
62.19999962	-50.31281000
62.23999962	-41.32816000
62.27999962	-37.73308000
62.31999962	-28.74844000
62.35999962	-28.74844000
62.39999962	-14.37422000
62.43999962	-1.79448800
62.47999962	12.57363000
62.51999962	25.15336000
62.55999962	43.12265000
62.59999962	59.29746000
62.63999962	79.06125000
62.67999962	98.83114000
62.71999962	115.00600000
62.75999962	132.97520000
62.79999962	141.95990000
62.83999962	147.34950000
62.87999962	140.15930000
62.91999962	127.57960000
62.95999962	116.80040000
62.99999962	113.20540000
63.03999962	111.41090000
63.07999962	107.81580000
63.11999962	104.22070000
63.15999962	100.62560000
63.19999962	100.62560000
63.23999962	100.62560000
63.27999962	98.83114000
63.31999962	100.62560000
63.35999961	98.83114000
63.39999961	91.64098000
63.43999961	80.86184000
63.47999961	66.48762000
63.51999961	44.92325000
63.55999961	19.76379000
63.59999961	-7.18405700
63.63999961	-35.93859000
63.67999961	-66.48762000
63.71999961	-95.23605000
63.75999961	-123.99060000
63.79999961	-141.95990000
63.83999961	-152.73900000
63.87999961	-156.33410000
63.91999961	-138.36480000
63.95999961	-111.41090000
63.99999961	-84.45692000
64.03999961	-73.67168000
64.07999961	-71.87719000
64.11999961	-70.07660000
64.15999961	-66.48762000
64.19999961	-68.28211000
64.23999961	-70.07660000
64.27999961	-73.67168000
64.31999961	-77.26676000
64.35999961	-82.65633000
64.39999961	-86.25141000
64.43999961	-89.84650000
64.47999961	-88.04590000
64.51999961	-80.86184000
64.55999961	-68.28211000
64.59999961	-55.70238000
64.63999961	-46.71774000
64.67999961	-39.52757000
64.71999961	-35.93859000
64.75999961	-30.54292000
64.79999961	-26.95395000
64.83999961	-17.96930000
64.87999961	-7.18405700
64.91999961	7.18405700
64.95999961	23.35887000
64.99999960	41.32816000
65.03999960	61.09195000
65.07999960	82.65633000
65.11999960	106.01520000
65.15999960	129.38020000
65.19999960	143.75440000
65.23999960	156.33410000
65.27999960	147.34950000
65.31999960	138.36480000
65.35999960	122.19000000
65.39999960	120.39550000
65.43999960	115.00600000
65.47999960	113.20540000
65.51999960	107.81580000
65.55999960	104.22070000
65.59999960	100.62560000
65.63999960	98.83114000
65.67999960	97.03055000
65.71999960	98.83114000
65.75999960	97.03055000
65.79999960	95.23605000
65.83999960	89.84650000
65.87999960	77.26676000
65.91999960	57.50298000
65.95999960	28.74844000
65.99999960	3.58897700
66.03999960	-26.95395000
66.07999960	-57.50298000
66.11999960	-86.25141000
66.15999960	-115.00600000
66.19999960	-138.36480000
66.23999960	-156.33410000
66.27999960	-150.94450000
66.31999960	-136.56420000
66.35999960	-107.81580000
66.39999960	-86.25141000
66.43999960	-79.06125000
66.47999960	-73.67168000
66.51999960	-68.28211000
66.55999960	-68.28211000
66.59999960	-70.07660000
66.63999959	-71.87719000
66.67999959	-71.87719000
66.71999959	-75.47227000
66.75999959	-84.45692000
66.79999959	-88.04590000
66.83999959	-93.44157000
66.87999959	-88.04590000
66.91999959	-84.45692000
66.95999959	-82.65633000
66.99999959	-64.68703000
67.03999959	-41.32816000
67.07999959	-35.93859000
67.11999959	-37.73308000
67.15999959	-35.93859000
67.19999959	-25.15336000
67.23999959	-14.37422000
67.27999959	-7.18405700
67.31999959	3.58897700
67.35999959	19.76379000
67.39999959	34.13800000
67.43999959	52.10730000
67.47999959	73.67168000
67.51999959	93.44157000
67.55999959	113.20540000
67.59999959	132.97520000
67.63999959	143.75440000
67.67999959	154.53350000
67.71999959	143.75440000
67.75999959	129.38020000
67.79999959	118.59490000
67.83999959	116.80040000
67.87999959	113.20540000
67.91999959	109.61030000
67.95999959	104.22070000
67.99999959	100.62560000
68.03999959	98.83114000
68.07999959	97.03055000
68.11999959	98.83114000
68.15999959	98.83114000
68.19999959	97.03055000
68.23999959	91.64098000
68.27999959	82.65633000
68.31999958	68.28211000
68.35999958	44.92325000
68.39999958	19.76379000
68.43999958	-10.77914000
68.47999958	-39.52757000
68.51999958	-70.07660000
68.55999958	-100.62560000
68.59999958	-127.57960000
68.63999958	-145.54890000
68.67999958	-163.51820000
68.71999958	-149.14400000
68.75999958	-123.99060000
68.79999958	-100.62560000
68.83999958	-79.06125000
68.87999958	-73.67168000
68.91999958	-71.87719000
68.95999958	-68.28211000
68.99999958	-66.48762000
69.03999958	-70.07660000
69.07999958	-71.87719000
69.11999958	-77.26676000
69.15999958	-79.06125000
69.19999958	-86.25141000
69.23999958	-88.04590000
69.27999958	-93.44157000
69.31999958	-91.64098000
69.35999958	-95.23605000
69.39999958	-102.42620000
69.43999958	-89.84650000
69.47999958	-59.29746000
69.51999958	-43.12265000
69.55999958	-28.74844000
69.59999958	-16.16870000
69.63999958	16.16870000
69.67999958	43.12265000
69.71999958	52.10730000
69.75999958	43.12265000
69.79999958	39.52757000
69.83999958	48.51222000
69.87999958	64.68703000
69.91999958	75.47227000
69.95999957	82.65633000
69.99999957	100.62560000
70.03999957	125.78510000
70.07999957	145.54890000
70.11999957	136.56420000
70.15999957	122.19000000
70.19999957	107.81580000
70.23999957	111.41090000
70.27999957	111.41090000
70.31999957	106.01520000
70.35999957	98.83114000
70.39999957	97.03055000
70.43999957	98.83114000
70.47999957	100.62560000
70.51999957	100.62560000
70.55999957	104.22070000
70.59999957	106.01520000
70.63999957	107.81580000
70.67999957	106.01520000
70.71999957	91.64098000
70.75999957	66.48762000
70.79999957	34.13800000
70.83999957	3.58897700
70.87999957	-30.54292000
70.91999957	-66.48762000
70.95999957	-102.42620000
70.99999957	-131.17470000
71.03999957	-150.94450000
71.07999957	-159.92920000
71.11999957	-163.51820000
71.15999957	-136.56420000
71.19999957	-115.00600000
71.23999957	-89.84650000
71.27999957	-82.65633000
71.31999957	-75.47227000
71.35999957	-73.67168000
71.39999957	-73.67168000
71.43999957	-73.67168000
71.47999957	-71.87719000
71.51999957	-71.87719000
71.55999957	-73.67168000
71.59999956	-77.26676000
71.63999956	-80.86184000
71.67999956	-84.45692000
71.71999956	-86.25141000
71.75999956	-80.86184000
71.79999956	-75.47227000
71.83999956	-62.89254000
71.87999956	-57.50298000
71.91999956	-46.71774000
71.95999956	-41.32816000
71.99999956	-34.13800000
72.03999956	-30.54292000
72.07999956	-21.55827000
72.11999956	-10.77914000
72.15999956	1.79448800
72.19999956	14.37422000
72.23999956	30.54292000
72.27999956	50.31281000
72.31999956	71.87719000
72.35999956	91.64098000
72.39999956	113.20540000
72.43999956	132.97520000
72.47999956	143.75440000
72.51999956	152.73900000
72.55999956	143.75440000
72.59999956	136.56420000
72.63999956	120.39550000
72.67999956	118.59490000
72.71999956	118.59490000
72.75999956	111.41090000
72.79999956	102.42620000
72.83999956	100.62560000
72.87999956	95.23605000
72.91999956	91.64098000
72.95999956	89.84650000
72.99999956	91.64098000
73.03999956	89.84650000
73.07999956	86.25141000
73.11999956	79.06125000
73.15999956	64.68703000
73.19999956	43.12265000
73.23999955	16.16870000
73.27999955	-14.37422000
73.31999955	-43.12265000
73.35999955	-71.87719000
73.39999955	-102.42620000
73.43999955	-127.57960000
73.47999955	-145.54890000
73.51999955	-154.53350000
73.55999955	-143.75440000
73.59999955	-132.97520000
73.63999955	-106.01520000
73.67999955	-95.23605000
73.71999955	-70.07660000
73.75999955	-68.28211000
73.79999955	-66.48762000
73.83999955	-71.87719000
73.87999955	-71.87719000
73.91999955	-71.87719000
73.95999955	-75.47227000
73.99999955	-80.86184000
74.03999955	-86.25141000
74.07999955	-89.84650000
74.11999955	-89.84650000
74.15999955	-86.25141000
74.19999955	-77.26676000
74.23999955	-66.48762000
74.27999955	-53.90789000
74.31999955	-43.12265000
74.35999955	-35.93859000
74.39999955	-32.34352000
74.43999955	-26.95395000
74.47999955	-21.55827000
74.51999955	-16.16870000
74.55999955	-7.18405700
74.59999955	3.58897700
74.63999955	17.96930000
74.67999955	34.13800000
74.71999955	53.90789000
74.75999955	75.47227000
74.79999955	98.83114000
74.83999955	122.19000000
74.87999954	140.15930000
74.91999954	154.53350000
74.95999954	154.53350000
74.99999954	143.75440000
75.03999954	127.57960000
75.07999954	122.19000000
75.11999954	120.39550000
75.15999954	113.20540000
75.19999954	107.81580000
75.23999954	104.22070000
75.27999954	100.62560000
75.31999954	97.03055000
75.35999954	93.44157000
75.39999954	95.23605000
75.43999954	93.44157000
75.47999954	91.64098000
75.51999954	86.25141000
75.55999954	75.47227000
75.59999954	53.90789000
75.63999954	26.95395000
75.67999954	-3.58897700
75.71999954	-34.13800000
75.75999954	-64.68703000
75.79999954	-95.23605000
75.83999954	-125.78510000
75.87999954	-145.54890000
75.91999954	-159.92920000
75.95999954	-158.12860000
75.99999954	-140.15930000
76.03999954	-111.41090000
76.07999954	-97.03055000
76.11999954	-86.25141000
76.15999954	-79.06125000
76.19999954	-71.87719000
76.23999954	-73.67168000
76.27999954	-73.67168000
76.31999954	-73.67168000
76.35999954	-75.47227000
76.39999954	-82.65633000
76.43999954	-88.04590000
76.47999954	-91.64098000
76.51999953	-95.23605000
76.55999953	-93.44157000
76.59999953	-86.25141000
76.63999953	-71.87719000
76.67999953	-59.29746000
76.71999953	-44.92325000
76.75999953	-41.32816000
76.79999953	-44.92325000
76.83999953	-30.54292000
76.87999953	-16.16870000
76.91999953	-12.57363000
76.95999953	-8.98464900
76.99999953	0.00000000
77.03999953	14.37422000
77.07999953	32.34352000
77.11999953	46.71774000
77.15999953	64.68703000
77.19999953	86.25141000
77.23999953	107.81580000
77.27999953	125.78510000
77.31999953	141.95990000
77.35999953	150.94450000
77.39999953	147.34950000
77.43999953	136.56420000
77.47999953	120.39550000
77.51999953	118.59490000
77.55999953	113.20540000
77.59999953	107.81580000
77.63999953	102.42620000
77.67999953	100.62560000
77.71999953	98.83114000
77.75999953	95.23605000
77.79999953	93.44157000
77.83999953	93.44157000
77.87999953	91.64098000
77.91999953	86.25141000
77.95999953	77.26676000
77.99999953	61.09195000
78.03999953	39.52757000
78.07999953	8.98464900
78.11999953	-21.55827000
78.15999952	-50.31281000
78.19999952	-80.86184000
78.23999952	-111.41090000
78.27999952	-136.56420000
78.31999952	-149.14400000
78.35999952	-159.92920000
78.39999952	-143.75440000
78.43999952	-118.59490000
78.47999952	-93.44157000
78.51999952	-86.25141000
78.55999952	-77.26676000
78.59999952	-73.67168000
78.63999952	-70.07660000
78.67999952	-71.87719000
78.71999952	-71.87719000
78.75999952	-73.67168000
78.79999952	-80.86184000
78.83999952	-86.25141000
78.87999952	-88.04590000
78.91999952	-93.44157000
78.95999952	-95.23605000
78.99999952	-89.84650000
79.03999952	-77.26676000
79.07999952	-64.68703000
79.11999952	-53.90789000
79.15999952	-44.92325000
79.19999952	-37.73308000
79.23999952	-32.34352000
79.27999952	-28.74844000
79.31999952	-25.15336000
79.35999952	-16.16870000
79.39999952	-7.18405700
79.43999952	5.38956800
79.47999952	21.55827000
79.51999952	39.52757000
79.55999952	59.29746000
79.59999952	80.86184000
79.63999952	104.22070000
79.67999952	125.78510000
79.71999952	141.95990000
79.75999952	149.14400000
79.79999952	152.73900000
79.83999951	143.75440000
79.87999951	123.99060000
79.91999951	122.19000000
79.95999951	116.80040000
79.99999951	115.00600000
80.03999951	106.01520000
80.07999951	102.42620000
80.11999951	100.62560000
80.15999951	97.03055000
80.19999951	95.23605000
80.23999951	97.03055000
80.27999951	97.03055000
80.31999951	93.44157000
80.35999951	86.25141000
80.39999951	75.47227000
80.43999951	55.70238000
80.47999951	28.74844000
80.51999951	0.00000000
80.55999951	-30.54292000
80.59999951	-61.09195000
80.63999951	-93.44157000
80.67999951	-120.39550000
80.71999951	-141.95990000
80.75999951	-156.33410000
80.79999951	-152.73900000
80.83999951	-136.56420000
80.87999951	-113.20540000
80.91999951	-104.22070000
80.95999951	-106.01520000
80.99999951	-102.42620000
81.03999951	-93.44157000
81.07999951	-82.65633000
81.11999951	-71.87719000
81.15999951	-59.29746000
81.19999951	-46.71774000
81.23999951	-39.52757000
81.27999951	-41.32816000
81.31999951	-52.10730000
81.35999951	-66.48762000
81.39999951	-79.06125000
81.43999951	-80.86184000
81.47999950	-77.26676000
81.51999950	-71.87719000
81.55999950	-68.28211000
81.59999950	-59.29746000
81.63999950	-57.50298000
81.67999950	-44.92325000
81.71999950	-43.12265000
81.75999950	-30.54292000
81.79999950	-19.76379000
81.83999950	-5.38956800
81.87999950	7.18405700
81.91999950	25.15336000
81.95999950	44.92325000
81.99999950	68.28211000
82.03999950	91.64098000
82.07999950	115.00600000
82.11999950	136.56420000
82.15999950	150.94450000
82.19999950	163.51820000
82.23999950	159.92920000
82.27999950	147.34950000
82.31999950	132.97520000
82.35999950	127.57960000
82.39999950	116.80040000
82.43999950	109.61030000
82.47999950	100.62560000
82.51999950	91.64098000
82.55999950	88.04590000
82.59999950	86.25141000
82.63999950	86.25141000
82.67999950	91.64098000
82.71999950	91.64098000
82.75999950	88.04590000
82.79999950	79.06125000
82.83999950	66.48762000
82.87999950	43.12265000
82.91999950	14.37422000
82.95999950	-14.37422000
82.99999950	-43.12265000
83.03999950	-71.87719000
83.07999950	-98.83114000
83.11999949	-122.19000000
83.15999949	-136.56420000
83.19999949	-149.14400000
83.23999949	-134.76970000
83.27999949	-116.80040000
83.31999949	-98.83114000
83.35999949	-97.03055000
83.39999949	-89.84650000
83.43999949	-80.86184000
83.47999949	-79.06125000
83.51999949	-80.86184000
83.55999949	-84.45692000
83.59999949	-82.65633000
83.63999949	-82.65633000
83.67999949	-86.25141000
83.71999949	-91.64098000
83.75999949	-93.44157000
83.79999949	-93.44157000
83.83999949	-88.04590000
83.87999949	-77.26676000
83.91999949	-64.68703000
83.95999949	-57.50298000
83.99999949	-46.71774000
84.03999949	-39.52757000
84.07999949	-32.34352000
84.11999949	-28.74844000
84.15999949	-21.55827000
84.19999949	-12.57363000
84.23999949	-1.79448800
84.27999949	10.77914000
84.31999949	23.35887000
84.35999949	39.52757000
84.39999949	55.70238000
84.43999949	73.67168000
84.47999949	91.64098000
84.51999949	109.61030000
84.55999949	127.57960000
84.59999949	136.56420000
84.63999949	150.94450000
84.67999949	140.15930000
84.71999949	132.97520000
84.75999948	120.39550000
84.79999948	120.39550000
84.83999948	116.80040000
84.87999948	111.41090000
84.91999948	106.01520000
84.95999948	104.22070000
84.99999948	102.42620000
85.03999948	98.83114000
85.07999948	95.23605000
85.11999948	95.23605000
85.15999948	91.64098000
85.19999948	84.45692000
85.23999948	71.87719000
85.27999948	53.90789000
85.31999948	28.74844000
85.35999948	0.00000000
85.39999948	-30.54292000
85.43999948	-59.29746000
85.47999948	-88.04590000
85.51999948	-115.00600000
85.55999948	-136.56420000
85.59999948	-150.94450000
85.63999948	-150.94450000
85.67999948	-141.95990000
85.71999948	-115.00600000
85.75999948	-97.03055000
85.79999948	-79.06125000
85.83999948	-73.67168000
85.87999948	-70.07660000
85.91999948	-70.07660000
85.95999948	-71.87719000
85.99999948	-75.47227000
86.03999948	-79.06125000
86.07999948	-82.65633000
86.11999948	-86.25141000
86.15999948	-91.64098000
86.19999948	-93.44157000
86.23999948	-93.44157000
86.27999948	-88.04590000
86.31999948	-79.06125000
86.35999948	-66.48762000
86.39999947	-57.50298000
86.43999947	-48.51222000
86.47999947	-41.32816000
86.51999947	-34.13800000
86.55999947	-25.15336000
86.59999947	-21.55827000
86.63999947	-23.35887000
86.67999947	-3.58897700
86.71999947	21.55827000
86.75999947	32.34352000
86.79999947	44.92325000
86.83999947	61.09195000
86.87999947	84.45692000
86.91999947	107.81580000
86.95999947	123.99060000
86.99999947	136.56420000
87.03999947	150.94450000
87.07999947	150.94450000
87.11999947	136.56420000
87.15999947	125.78510000
87.19999947	120.39550000
87.23999947	115.00600000
87.27999947	111.41090000
87.31999947	107.81580000
87.35999947	104.22070000
87.39999947	100.62560000
87.43999947	97.03055000
87.47999947	95.23605000
87.51999947	93.44157000
87.55999947	91.64098000
87.59999947	88.04590000
87.63999947	79.06125000
87.67999947	64.68703000
87.71999947	43.12265000
87.75999947	16.16870000
87.79999947	-10.77914000
87.83999947	-39.52757000
87.87999947	-70.07660000
87.91999947	-100.62560000
87.95999947	-123.99060000
87.99999947	-145.54890000
88.03999946	-154.53350000
88.07999946	-158.12860000
88.11999946	-134.76970000
88.15999946	-109.61030000
88.19999946	-80.86184000
88.23999946	-75.47227000
88.27999946	-71.87719000
88.31999946	-68.28211000
88.35999946	-70.07660000
88.39999946	-75.47227000
88.43999946	-75.47227000
88.47999946	-75.47227000
88.51999946	-79.06125000
88.55999946	-88.04590000
88.59999946	-91.64098000
88.63999946	-93.44157000
88.67999946	-89.84650000
88.71999946	-84.45692000
88.75999946	-71.87719000
88.79999946	-57.50298000
88.83999946	-46.71774000
88.87999946	-39.52757000
88.91999946	-35.93859000
88.95999946	-30.54292000
88.99999946	-26.95395000
89.03999946	-19.76379000
89.07999946	-7.18405700
89.11999946	1.79448800
89.15999946	16.16870000
89.19999946	32.34352000
89.23999946	52.10730000
89.27999946	71.87719000
89.31999946	91.64098000
89.35999946	115.00600000
89.39999946	136.56420000
89.43999946	145.54890000
89.47999946	156.33410000
89.51999946	143.75440000
89.55999946	134.76970000
89.59999946	120.39550000
89.63999946	118.59490000
89.67999945	115.00600000
89.71999945	109.61030000
89.75999945	102.42620000
89.79999945	100.62560000
89.83999945	97.03055000
89.87999945	93.44157000
89.91999945	91.64098000
89.95999945	91.64098000
89.99999945	89.84650000
90.03999945	82.65633000
90.07999945	71.87719000
90.11999945	52.10730000
90.15999945	25.15336000
90.19999945	-3.58897700
90.23999945	-34.13800000
90.27999945	-62.89254000
90.31999945	-91.64098000
90.35999945	-116.80040000
90.39999945	-140.15930000
90.43999945	-152.73900000
90.47999945	-156.33410000
90.51999945	-141.95990000
90.55999945	-120.39550000
90.59999945	-95.23605000
90.63999945	-80.86184000
90.67999945	-71.87719000
90.71999945	-68.28211000
90.75999945	-70.07660000
90.79999945	-71.87719000
90.83999945	-73.67168000
90.87999945	-75.47227000
90.91999945	-80.86184000
90.95999945	-84.45692000
90.99999945	-89.84650000
91.03999945	-91.64098000
91.07999945	-91.64098000
91.11999945	-86.25141000
91.15999945	-73.67168000
91.19999945	-62.89254000
91.23999945	-52.10730000
91.27999945	-43.12265000
91.31999945	-35.93859000
91.35999944	-32.34352000
91.39999944	-26.95395000
91.43999944	-21.55827000
91.47999944	-14.37422000
91.51999944	-1.79448800
91.55999944	10.77914000
91.59999944	28.74844000
91.63999944	46.71774000
91.67999944	64.68703000
91.71999944	84.45692000
91.75999944	107.81580000
91.79999944	127.57960000
91.83999944	147.34950000
91.87999944	156.33410000
91.91999944	150.94450000
91.95999944	138.36480000
91.99999944	123.99060000
92.03999944	120.39550000
92.07999944	115.00600000
92.11999944	107.81580000
92.15999944	104.22070000
92.19999944	100.62560000
92.23999944	98.83114000
92.27999944	95.23605000
92.31999944	93.44157000
92.35999944	91.64098000
92.39999944	89.84650000
92.43999944	84.45692000
92.47999944	73.67168000
92.51999944	57.50298000
92.55999944	30.54292000
92.59999944	0.00000000
92.63999944	-28.74844000
92.67999944	-57.50298000
92.71999944	-88.04590000
92.75999944	-115.00600000
92.79999944	-138.36480000
92.83999944	-152.73900000
92.87999944	-159.92920000
92.91999944	-150.94450000
92.95999944	-129.38020000
92.99999943	-107.81580000
93.03999943	-93.44157000
93.07999943	-79.06125000
93.11999943	-75.47227000
93.15999943	-79.06125000
93.19999943	-80.86184000
93.23999943	-80.86184000
93.27999943	-80.86184000
93.31999943	-86.25141000
93.35999943	-89.84650000
93.39999943	-93.44157000
93.43999943	-95.23605000
93.47999943	-97.03055000
93.51999943	-93.44157000
93.55999943	-82.65633000
93.59999943	-70.07660000
93.63999943	-57.50298000
93.67999943	-44.92325000
93.71999943	-37.73308000
93.75999943	-34.13800000
93.79999943	-26.95395000
93.83999943	-21.55827000
93.87999943	-12.57363000
93.91999943	-1.79448800
93.95999943	7.18405700
93.99999943	21.55827000
94.03999943	35.93859000
94.07999943	53.90789000
94.11999943	71.87719000
94.15999943	89.84650000
94.19999943	111.41090000
94.23999943	127.57960000
94.27999943	141.95990000
94.31999943	150.94450000
94.35999943	147.34950000
94.39999943	134.76970000
94.43999943	120.39550000
94.47999943	115.00600000
94.51999943	113.20540000
94.55999943	109.61030000
94.59999943	102.42620000
94.63999942	100.62560000
94.67999942	97.03055000
94.71999942	93.44157000
94.75999942	89.84650000
94.79999942	88.04590000
94.83999942	84.45692000
94.87999942	75.47227000
94.91999942	61.09195000
94.95999942	43.12265000
94.99999942	16.16870000
95.03999942	-14.37422000
95.07999942	-39.52757000
95.11999942	-70.07660000
95.15999942	-100.62560000
95.19999942	-122.19000000
95.23999942	-140.15930000
95.27999942	-150.94450000
95.31999942	-147.34950000
95.35999942	-123.99060000
95.39999942	-102.42620000
95.43999942	-86.25141000
95.47999942	-79.06125000
95.51999942	-71.87719000
95.55999942	-70.07660000
95.59999942	-71.87719000
95.63999942	-73.67168000
95.67999942	-77.26676000
95.71999942	-80.86184000
95.75999942	-86.25141000
95.79999942	-88.04590000
95.83999942	-91.64098000
95.87999942	-93.44157000
95.91999942	-91.64098000
95.95999942	-82.65633000
95.99999942	-71.87719000
96.03999942	-59.29746000
96.07999942	-50.31281000
96.11999942	-41.32816000
96.15999942	-35.93859000
96.19999942	-32.34352000
96.23999942	-28.74844000
96.27999941	-23.35887000
96.31999941	-14.37422000
96.35999941	-5.38956800
96.39999941	12.57363000
96.43999941	28.74844000
96.47999941	34.13800000
96.51999941	61.09195000
96.55999941	95.23605000
96.59999941	115.00600000
96.63999941	131.17470000
96.67999941	143.75440000
96.71999941	156.33410000
96.75999941	152.73900000
96.79999941	140.15930000
96.83999941	122.19000000
96.87999941	122.19000000
96.91999941	118.59490000
96.95999941	111.41090000
96.99999941	106.01520000
97.03999941	104.22070000
97.07999941	98.83114000
97.11999941	95.23605000
97.15999941	95.23605000
97.19999941	97.03055000
97.23999941	93.44157000
97.27999941	88.04590000
97.31999941	79.06125000
97.35999941	62.89254000
97.39999941	37.73308000
97.43999941	7.18405700
97.47999941	-21.55827000
97.51999941	-50.31281000
97.55999941	-82.65633000
97.59999941	-109.61030000
97.63999941	-132.97520000
97.67999941	-147.34950000
97.71999941	-158.12860000
97.75999941	-143.75440000
97.79999941	-120.39550000
97.83999941	-95.23605000
97.87999941	-82.65633000
97.91999940	-79.06125000
97.95999940	-68.28211000
97.99999940	-68.28211000
98.03999940	-71.87719000
98.07999940	-73.67168000
98.11999940	-75.47227000
98.15999940	-80.86184000
98.19999940	-86.25141000
98.23999940	-88.04590000
98.27999940	-91.64098000
98.31999940	-91.64098000
98.35999940	-88.04590000
98.39999940	-75.47227000
98.43999940	-61.09195000
98.47999940	-52.10730000
98.51999940	-43.12265000
98.55999940	-35.93859000
98.59999940	-30.54292000
98.63999940	-28.74844000
98.67999940	-23.35887000
98.71999940	-14.37422000
98.75999940	-1.79448800
98.79999940	7.18405700
98.83999940	23.35887000
98.87999940	39.52757000
98.91999940	59.29746000
98.95999940	77.26676000
98.99999940	98.83114000
99.03999940	118.59490000
99.07999940	136.56420000
99.11999940	145.54890000
99.15999940	156.33410000
99.19999940	141.95990000
99.23999940	131.17470000
99.27999940	116.80040000
99.31999940	118.59490000
99.35999940	113.20540000
99.39999940	106.01520000
99.43999940	102.42620000
99.47999940	100.62560000
99.51999940	97.03055000
99.55999939	95.23605000
99.59999939	93.44157000
99.63999939	91.64098000
99.67999939	88.04590000
99.71999939	79.06125000
99.75999939	64.68703000
99.79999939	44.92325000
99.83999939	17.96930000
99.87999939	-12.57363000
99.91999939	-39.52757000
99.95999939	-70.07660000
99.99999939	-98.83114000
100.03999939	-125.78510000
100.07999939	-143.75440000
100.11999939	-154.53350000
100.15999939	-156.33410000
100.19999939	-138.36480000
100.23999939	-109.61030000
100.27999939	-89.84650000
100.31999939	-79.06125000
100.35999939	-71.87719000
100.39999939	-68.28211000
100.43999939	-68.28211000
100.47999939	-71.87719000
100.51999939	-73.67168000
100.55999939	-75.47227000
100.59999939	-79.06125000
100.63999939	-84.45692000
100.67999939	-89.84650000
100.71999939	-89.84650000
100.75999939	-88.04590000
100.79999939	-82.65633000
100.83999939	-70.07660000
100.87999939	-57.50298000
100.91999939	-48.51222000
100.95999939	-39.52757000
100.99999939	-32.34352000
101.03999939	-28.74844000
101.07999939	-23.35887000
101.11999939	-17.96930000
101.15999939	-8.98464900
101.19999938	3.58897700
101.23999938	17.96930000
101.27999938	32.34352000
101.31999938	48.51222000
101.35999938	68.28211000
101.39999938	91.64098000
101.43999938	116.80040000
101.47999938	138.36480000
101.51999938	150.94450000
101.55999938	156.33410000
101.59999938	145.54890000
101.63999938	132.97520000
101.67999938	120.39550000
101.71999938	120.39550000
101.75999938	115.00600000
101.79999938	107.81580000
101.83999938	104.22070000
101.87999938	100.62560000
101.91999938	97.03055000
101.95999938	93.44157000
101.99999938	93.44157000
102.03999938	93.44157000
102.07999938	89.84650000
102.11999938	84.45692000
102.15999938	71.87719000
102.19999938	52.10730000
102.23999938	25.15336000
102.27999938	-3.58897700
102.31999938	-34.13800000
102.35999938	-64.68703000
102.39999938	-93.44157000
102.43999938	-118.59490000
102.47999938	-138.36480000
102.51999938	-150.94450000
102.55999938	-150.94450000
102.59999938	-131.17470000
102.63999938	-111.41090000
102.67999938	-91.64098000
102.71999938	-80.86184000
102.75999938	-73.67168000
102.79999938	-70.07660000
102.83999937	-66.48762000
102.87999937	-68.28211000
102.91999937	-75.47227000
102.95999937	-79.06125000
102.99999937	-82.65633000
103.03999937	-86.25141000
103.07999937	-88.04590000
103.11999937	-91.64098000
103.15999937	-89.84650000
103.19999937	-80.86184000
103.23999937	-70.07660000
103.27999937	-57.50298000
103.31999937	-48.51222000
103.35999937	-39.52757000
103.39999937	-34.13800000
103.43999937	-28.74844000
103.47999937	-23.35887000
103.51999937	-21.55827000
103.55999937	-10.77914000
103.59999937	0.00000000
103.63999937	14.37422000
103.67999937	28.74844000
103.71999937	44.92325000
103.75999937	64.68703000
103.79999937	84.45692000
103.83999937	106.01520000
103.87999937	125.78510000
103.91999937	141.95990000
103.95999937	150.94450000
103.99999937	150.94450000
104.03999937	140.15930000
104.07999937	123.99060000
104.11999937	116.80040000
104.15999937	115.00600000
104.19999937	111.41090000
104.23999937	104.22070000
104.27999937	102.42620000
104.31999937	100.62560000
104.35999937	97.03055000
104.39999937	93.44157000
104.43999937	93.44157000
104.47999937	91.64098000
104.51999936	84.45692000
104.55999936	75.47227000
104.59999936	57.50298000
104.63999936	34.13800000
104.67999936	7.18405700
104.71999936	-16.16870000
104.75999936	-34.13800000
104.79999936	-44.92325000
104.83999936	-79.06125000
104.87999936	-120.39550000
104.91999936	-147.34950000
104.95999936	-159.92920000
104.99999936	-167.11330000
105.03999936	-174.30340000
105.07999936	-158.12860000
105.11999936	-136.56420000
105.15999936	-98.83114000
105.19999936	-77.26676000
105.23999936	-68.28211000
105.27999936	-66.48762000
105.31999936	-57.50298000
105.35999936	-50.31281000
105.39999936	-53.90789000
105.43999936	-68.28211000
105.47999936	-79.06125000
105.51999936	-80.86184000
105.55999936	-75.47227000
105.59999936	-73.67168000
105.63999936	-71.87719000
105.67999936	-62.89254000
105.71999936	-48.51222000
105.75999936	-37.73308000
105.79999936	-30.54292000
105.83999936	-28.74844000
105.87999936	-30.54292000
105.91999936	-26.95395000
105.95999936	-21.55827000
105.99999936	-14.37422000
106.03999936	-7.18405700
106.07999936	5.38956800
106.11999936	25.15336000
106.15999935	48.51222000
106.19999935	75.47227000
106.23999935	102.42620000
106.27999935	129.38020000
106.31999935	140.15930000
106.35999935	161.72370000
106.39999935	176.09790000
106.43999935	161.72370000
106.47999935	136.56420000
106.51999935	120.39550000
106.55999935	116.80040000
106.59999935	115.00600000
106.63999935	104.22070000
106.67999935	98.83114000
106.71999935	100.62560000
106.75999935	98.83114000
106.79999935	93.44157000
106.83999935	91.64098000
106.87999935	89.84650000
106.91999935	80.86184000
106.95999935	71.87719000
106.99999935	55.70238000
107.03999935	32.34352000
107.07999935	1.79448800
107.11999935	-25.15336000
107.15999935	-50.31281000
107.19999935	-79.06125000
107.23999935	-102.42620000
107.27999935	-123.99060000
107.31999935	-138.36480000
107.35999935	-147.34950000
107.39999935	-140.15930000
107.43999935	-122.19000000
107.47999935	-98.83114000
107.51999935	-84.45692000
107.55999935	-73.67168000
107.59999935	-70.07660000
107.63999935	-70.07660000
107.67999935	-71.87719000
107.71999935	-75.47227000
107.75999935	-79.06125000
107.79999934	-80.86184000
107.83999934	-84.45692000
107.87999934	-89.84650000
107.91999934	-91.64098000
107.95999934	-93.44157000
107.99999934	-91.64098000
108.03999934	-82.65633000
108.07999934	-68.28211000
108.11999934	-57.50298000
108.15999934	-44.92325000
108.19999934	-37.73308000
108.23999934	-30.54292000
108.27999934	-25.15336000
108.31999934	-19.76379000
108.35999934	-14.37422000
108.39999934	-3.58897700
108.43999934	7.18405700
108.47999934	21.55827000
108.51999934	34.13800000
108.55999934	53.90789000
108.59999934	71.87719000
108.63999934	91.64098000
108.67999934	113.20540000
108.71999934	132.97520000
108.75999934	143.75440000
108.79999934	152.73900000
108.83999934	145.54890000
108.87999934	134.76970000
108.91999934	118.59490000
108.95999934	115.00600000
108.99999934	113.20540000
109.03999934	107.81580000
109.07999934	102.42620000
109.11999934	100.62560000
109.15999934	98.83114000
109.19999934	95.23605000
109.23999934	95.23605000
109.27999934	93.44157000
109.31999934	91.64098000
109.35999934	84.45692000
109.39999934	71.87719000
109.43999933	52.10730000
109.47999933	25.15336000
109.51999933	-7.18405700
109.55999933	-37.73308000
109.59999933	-66.48762000
109.63999933	-97.03055000
109.67999933	-122.19000000
109.71999933	-140.15930000
109.75999933	-152.73900000
109.79999933	-141.95990000
109.83999933	-125.78510000
109.87999933	-88.04590000
109.91999933	-73.67168000
109.95999933	-61.09195000
109.99999933	-59.29746000
110.03999933	-55.70238000
110.07999933	-59.29746000
110.11999933	-64.68703000
110.15999933	-68.28211000
110.19999933	-71.87719000
110.23999933	-79.06125000
110.27999933	-82.65633000
110.31999933	-86.25141000
110.35999933	-88.04590000
110.39999933	-86.25141000
110.43999933	-77.26676000
110.47999933	-64.68703000
110.51999933	-53.90789000
110.55999933	-44.92325000
110.59999933	-35.93859000
110.63999933	-35.93859000
110.67999933	-32.34352000
110.71999933	-30.54292000
110.75999933	-21.55827000
110.79999933	-10.77914000
110.83999933	1.79448800
110.87999933	17.96930000
110.91999933	35.93859000
110.95999933	57.50298000
110.99999933	79.06125000
111.03999933	102.42620000
111.07999932	125.78510000
111.11999932	143.75440000
111.15999932	150.94450000
111.19999932	156.33410000
111.23999932	143.75440000
111.27999932	132.97520000
111.31999932	122.19000000
111.35999932	120.39550000
111.39999932	113.20540000
111.43999932	106.01520000
111.47999932	104.22070000
111.51999932	100.62560000
111.55999932	97.03055000
111.59999932	97.03055000
111.63999932	98.83114000
111.67999932	97.03055000
111.71999932	93.44157000
111.75999932	88.04590000
111.79999932	79.06125000
111.83999932	57.50298000
111.87999932	34.13800000
111.91999932	3.58897700
111.95999932	-25.15336000
111.99999932	-55.70238000
112.03999932	-88.04590000
112.07999932	-115.00600000
112.11999932	-136.56420000
112.15999932	-149.14400000
112.19999932	-158.12860000
112.23999932	-136.56420000
112.27999932	-115.00600000
112.31999932	-93.44157000
112.35999932	-86.25141000
112.39999932	-73.67168000
112.43999932	-70.07660000
112.47999932	-70.07660000
112.51999932	-70.07660000
112.55999932	-71.87719000
112.59999932	-71.87719000
112.63999932	-79.06125000
112.67999932	-82.65633000
112.71999931	-86.25141000
112.75999931	-86.25141000
112.79999931	-82.65633000
112.83999931	-77.26676000
112.87999931	-68.28211000
112.91999931	-57.50298000
112.95999931	-43.12265000
112.99999931	-34.13800000
113.03999931	-28.74844000
113.07999931	-25.15336000
113.11999931	-21.55827000
113.15999931	-12.57363000
113.19999931	-3.58897700
113.23999931	7.18405700
113.27999931	21.55827000
113.31999931	34.13800000
113.35999931	53.90789000
113.39999931	71.87719000
113.43999931	88.04590000
113.47999931	107.81580000
113.51999931	127.57960000
113.55999931	141.95990000
113.59999931	150.94450000
113.63999931	145.54890000
113.67999931	132.97520000
113.71999931	120.39550000
113.75999931	116.80040000
113.79999931	115.00600000
113.83999931	109.61030000
113.87999931	104.22070000
113.91999931	102.42620000
113.95999931	100.62560000
113.99999931	97.03055000
114.03999931	93.44157000
114.07999931	91.64098000
114.11999931	88.04590000
114.15999931	82.65633000
114.19999931	71.87719000
114.23999931	53.90789000
114.27999931	28.74844000
114.31999931	0.00000000
114.35999930	-28.74844000
114.39999930	-57.50298000
114.43999930	-86.25141000
114.47999930	-113.20540000
114.51999930	-136.56420000
114.55999930	-149.14400000
114.59999930	-156.33410000
114.63999930	-141.95990000
114.67999930	-116.80040000
114.71999930	-88.04590000
114.75999930	-77.26676000
114.79999930	-71.87719000
114.83999930	-66.48762000
114.87999930	-64.68703000
114.91999930	-68.28211000
114.95999930	-71.87719000
114.99999930	-73.67168000
115.03999930	-75.47227000
115.07999930	-82.65633000
115.11999930	-88.04590000
115.15999930	-89.84650000
115.19999930	-91.64098000
115.23999930	-86.25141000
115.27999930	-75.47227000
115.31999930	-62.89254000
115.35999930	-52.10730000
115.39999930	-43.12265000
115.43999930	-37.73308000
115.47999930	-32.34352000
115.51999930	-30.54292000
115.55999930	-21.55827000
115.59999930	-10.77914000
115.63999930	3.58897700
115.67999930	16.16870000
115.71999930	34.13800000
115.75999930	50.31281000
115.79999930	71.87719000
115.83999930	91.64098000
115.87999930	115.00600000
115.91999930	134.76970000
115.95999930	147.34950000
115.99999930	156.33410000
116.03999929	145.54890000
116.07999929	138.36480000
116.11999929	115.00600000
116.15999929	107.81580000
116.19999929	118.59490000
116.23999929	118.59490000
116.27999929	109.61030000
116.31999929	107.81580000
116.35999929	107.81580000
116.39999929	113.20540000
116.43999929	115.00600000
116.47999929	115.00600000
116.51999929	107.81580000
116.55999929	89.84650000
116.59999929	62.89254000
116.63999929	35.93859000
116.67999929	5.38956800
116.71999929	-28.74844000
116.75999929	-61.09195000
116.79999929	-80.86184000
116.83999929	-95.23605000
116.87999929	-109.61030000
116.91999929	-125.78510000
116.95999929	-138.36480000
116.99999929	-140.15930000
117.03999929	-129.38020000
117.07999929	-100.62560000
117.11999929	-80.86184000
117.15999929	-66.48762000
117.19999929	-64.68703000
117.23999929	-57.50298000
117.27999929	-57.50298000
117.31999929	-61.09195000
117.35999929	-64.68703000
117.39999929	-66.48762000
117.43999929	-71.87719000
117.47999929	-79.06125000
117.51999929	-88.04590000
117.55999929	-95.23605000
117.59999929	-98.83114000
117.63999929	-97.03055000
117.67999928	-88.04590000
117.71999928	-71.87719000
117.75999928	-61.09195000
117.79999928	-53.90789000
117.83999928	-41.32816000
117.87999928	-30.54292000
117.91999928	-28.74844000
117.95999928	-17.96930000
117.99999928	-7.18405700
118.03999928	7.18405700
118.07999928	17.96930000
118.11999928	30.54292000
118.15999928	43.12265000
118.19999928	62.89254000
118.23999928	82.65633000
118.27999928	102.42620000
118.31999928	125.78510000
118.35999928	140.15930000
118.39999928	152.73900000
118.43999928	154.53350000
118.47999928	138.36480000
118.51999928	122.19000000
118.55999928	115.00600000
118.59999928	111.41090000
118.63999928	104.22070000
118.67999928	98.83114000
118.71999928	95.23605000
118.75999928	95.23605000
118.79999928	95.23605000
118.83999928	95.23605000
118.87999928	98.83114000
118.91999928	98.83114000
118.95999928	95.23605000
118.99999928	86.25141000
119.03999928	70.07660000
119.07999928	46.71774000
119.11999928	16.16870000
119.15999928	-14.37422000
119.19999928	-43.12265000
119.23999928	-73.67168000
119.27999928	-102.42620000
119.31999927	-129.38020000
119.35999927	-143.75440000
119.39999927	-156.33410000
119.43999927	-140.15930000
119.47999927	-118.59490000
119.51999927	-95.23605000
119.55999927	-82.65633000
119.59999927	-71.87719000
119.63999927	-64.68703000
119.67999927	-62.89254000
119.71999927	-61.09195000
119.75999927	-66.48762000
119.79999927	-68.28211000
119.83999927	-70.07660000
119.87999927	-73.67168000
119.91999927	-79.06125000
119.95999927	-80.86184000
119.99999927	-84.45692000
120.03999927	-79.06125000
120.07999927	-68.28211000
120.11999927	-57.50298000
120.15999927	-50.31281000
120.19999927	-41.32816000
120.23999927	-35.93859000
120.27999927	-28.74844000
120.31999927	-26.95395000
120.35999927	-21.55827000
120.39999927	-14.37422000
120.43999927	-5.38956800
120.47999927	5.38956800
120.51999927	21.55827000
120.55999927	39.52757000
120.59999927	57.50298000
120.63999927	80.86184000
120.67999927	104.22070000
120.71999927	127.57960000
120.75999927	143.75440000
120.79999927	158.12860000
120.83999927	154.53350000
120.87999927	141.95990000
120.91999927	127.57960000
120.95999926	122.19000000
120.99999926	116.80040000
121.03999926	109.61030000
121.07999926	104.22070000
121.11999926	104.22070000
121.15999926	100.62560000
121.19999926	97.03055000
121.23999926	93.44157000
121.27999926	93.44157000
121.31999926	93.44157000
121.35999926	89.84650000
121.39999926	82.65633000
121.43999926	68.28211000
121.47999926	46.71774000
121.51999926	17.96930000
121.55999926	-10.77914000
121.59999926	-41.32816000
121.63999926	-71.87719000
121.67999926	-102.42620000
121.71999926	-129.38020000
121.75999926	-145.54890000
121.79999926	-159.92920000
121.83999926	-147.34950000
121.87999926	-120.39550000
121.91999926	-89.84650000
121.95999926	-75.47227000
121.99999926	-70.07660000
122.03999926	-64.68703000
122.07999926	-62.89254000
122.11999926	-66.48762000
122.15999926	-70.07660000
122.19999926	-71.87719000
122.23999926	-73.67168000
122.27999926	-79.06125000
122.31999926	-84.45692000
122.35999926	-88.04590000
122.39999926	-88.04590000
122.43999926	-86.25141000
122.47999926	-73.67168000
122.51999926	-59.29746000
122.55999926	-46.71774000
122.59999925	-35.93859000
122.63999925	-25.15336000
122.67999925	-23.35887000
122.71999925	-21.55827000
122.75999925	-17.96930000
122.79999925	-7.18405700
122.83999925	3.58897700
122.87999925	16.16870000
122.91999925	26.95395000
122.95999925	43.12265000
122.99999925	61.09195000
123.03999925	82.65633000
123.07999925	102.42620000
123.11999925	122.19000000
123.15999925	136.56420000
123.19999925	150.94450000
123.23999925	150.94450000
123.27999925	138.36480000
123.31999925	123.99060000
123.35999925	118.59490000
123.39999925	116.80040000
123.43999925	113.20540000
123.47999925	106.01520000
123.51999925	102.42620000
123.55999925	100.62560000
123.59999925	97.03055000
123.63999925	93.44157000
123.67999925	93.44157000
123.71999925	91.64098000
123.75999925	88.04590000
123.79999925	79.06125000
123.83999925	64.68703000
123.87999925	43.12265000
123.91999925	14.37422000
123.95999925	-14.37422000
123.99999925	-43.12265000
124.03999925	-73.67168000
124.07999925	-102.42620000
124.11999925	-127.57960000
124.15999925	-147.34950000
124.19999925	-150.94450000
124.23999924	-150.94450000
124.27999924	-123.99060000
124.31999924	-109.61030000
124.35999924	-88.04590000
124.39999924	-80.86184000
124.43999924	-71.87719000
124.47999924	-70.07660000
124.51999924	-71.87719000
124.55999924	-71.87719000
124.59999924	-73.67168000
124.63999924	-75.47227000
124.67999924	-80.86184000
124.71999924	-86.25141000
124.75999924	-88.04590000
124.79999924	-89.84650000
124.83999924	-86.25141000
124.87999924	-79.06125000
124.91999924	-64.68703000
124.95999924	-53.90789000
124.99999924	-43.12265000
125.03999924	-35.93859000
125.07999924	-30.54292000
125.11999924	-26.95395000
125.15999924	-21.55827000
125.19999924	-12.57363000
125.23999924	0.00000000
125.27999924	12.57363000
125.31999924	26.95395000
125.35999924	43.12265000
125.39999924	59.29746000
125.43999924	79.06125000
125.47999924	98.83114000
125.51999924	120.39550000
125.55999924	136.56420000
125.59999924	149.14400000
125.63999924	152.73900000
125.67999924	141.95990000
125.71999924	127.57960000
125.75999924	118.59490000
125.79999924	116.80040000
125.83999924	113.20540000
125.87999923	109.61030000
125.91999923	98.83114000
125.95999923	88.04590000
125.99999923	98.83114000
126.03999923	100.62560000
126.07999923	95.23605000
126.11999923	89.84650000
126.15999923	86.25141000
126.19999923	82.65633000
126.23999923	71.87719000
126.27999923	48.51222000
126.31999923	21.55827000
126.35999923	-5.38956800
126.39999923	-35.93859000
126.43999923	-64.68703000
126.47999923	-93.44157000
126.51999923	-120.39550000
126.55999923	-143.75440000
126.59999923	-150.94450000
126.63999923	-161.72370000
126.67999923	-136.56420000
126.71999923	-118.59490000
126.75999923	-93.44157000
126.79999923	-86.25141000
126.83999923	-77.26676000
126.87999923	-71.87719000
126.91999923	-71.87719000
126.95999923	-71.87719000
126.99999923	-77.26676000
127.03999923	-79.06125000
127.07999923	-82.65633000
127.11999923	-88.04590000
127.15999923	-91.64098000
127.19999923	-93.44157000
127.23999923	-93.44157000
127.27999923	-86.25141000
127.31999923	-73.67168000
127.35999923	-61.09195000
127.39999923	-52.10730000
127.43999923	-43.12265000
127.47999923	-35.93859000
127.51999923	-30.54292000
127.55999922	-23.35887000
127.59999922	-19.76379000
127.63999922	-10.77914000
127.67999922	0.00000000
127.71999922	14.37422000
127.75999922	26.95395000
127.79999922	44.92325000
127.83999922	64.68703000
127.87999922	86.25141000
127.91999922	106.01520000
127.95999922	125.78510000
127.99999922	143.75440000
128.03999922	150.94450000
128.07999922	150.94450000
128.11999922	136.56420000
128.15999922	122.19000000
128.19999922	118.59490000
128.23999922	115.00600000
128.27999922	109.61030000
128.31999922	102.42620000
128.35999922	100.62560000
128.39999922	97.03055000
128.43999922	95.23605000
128.47999922	91.64098000
128.51999922	93.44157000
128.55999922	91.64098000
128.59999922	86.25141000
128.63999922	77.26676000
128.67999922	59.29746000
128.71999922	35.93859000
128.75999922	7.18405700
128.79999922	-21.55827000
128.83999922	-52.10730000
128.87999922	-80.86184000
128.91999922	-111.41090000
128.95999922	-132.97520000
128.99999922	-147.34950000
129.03999922	-156.33410000
129.07999922	-141.95990000
129.11999922	-120.39550000
129.15999922	-97.03055000
129.19999921	-84.45692000
129.23999921	-77.26676000
129.27999921	-70.07660000
129.31999921	-71.87719000
129.35999921	-71.87719000
129.39999921	-73.67168000
129.43999921	-75.47227000
129.47999921	-80.86184000
129.51999921	-84.45692000
129.55999921	-89.84650000
129.59999921	-91.64098000
129.63999921	-93.44157000
129.67999921	-86.25141000
129.71999921	-77.26676000
129.75999921	-64.68703000
129.79999921	-53.90789000
129.83999921	-43.12265000
129.87999921	-37.73308000
129.91999921	-32.34352000
129.95999921	-30.54292000
129.99999921	-26.95395000
130.03999921	-19.76379000
130.07999921	-10.77914000
130.11999921	3.58897700
130.15999921	17.96930000
130.19999921	35.93859000
130.23999921	57.50298000
130.27999921	79.06125000
130.31999921	100.62560000
130.35999921	122.19000000
130.39999921	140.15930000
130.43999921	149.14400000
130.47999921	156.33410000
130.51999921	141.95990000
130.55999921	129.38020000
130.59999921	120.39550000
130.63999921	118.59490000
130.67999921	113.20540000
130.71999921	106.01520000
130.75999921	100.62560000
130.79999921	97.03055000
130.83999920	97.03055000
130.87999920	93.44157000
130.91999920	98.83114000
130.95999920	97.03055000
130.99999920	89.84650000
131.03999920	82.65633000
131.07999920	70.07660000
131.11999920	50.31281000
131.15999920	23.35887000
131.19999920	-7.18405700
131.23999920	-35.93859000
131.27999920	-64.68703000
131.31999920	-93.44157000
131.35999920	-122.19000000
131.39999920	-138.36480000
131.43999920	-149.14400000
131.47999920	-138.36480000
131.51999920	-120.39550000
131.55999920	-89.84650000
131.59999920	-79.06125000
131.63999920	-73.67168000
131.67999920	-68.28211000
131.71999920	-64.68703000
131.75999920	-68.28211000
131.79999920	-71.87719000
131.83999920	-75.47227000
131.87999920	-73.67168000
131.91999920	-82.65633000
131.95999920	-86.25141000
131.99999920	-89.84650000
132.03999920	-89.84650000
132.07999920	-88.04590000
132.11999920	-77.26676000
132.15999920	-64.68703000
132.19999920	-53.90789000
132.23999920	-46.71774000
132.27999920	-35.93859000
132.31999920	-37.73308000
132.35999920	-32.34352000
132.39999920	-26.95395000
132.43999920	-16.16870000
132.47999919	-10.77914000
132.51999919	0.00000000
132.55999919	14.37422000
132.59999919	35.93859000
132.63999919	57.50298000
132.67999919	77.26676000
132.71999919	98.83114000
132.75999919	118.59490000
132.79999919	138.36480000
132.83999919	149.14400000
132.87999919	154.53350000
132.91999919	141.95990000
132.95999919	131.17470000
132.99999919	118.59490000
133.03999919	118.59490000
133.07999919	115.00600000
133.11999919	107.81580000
133.15999919	104.22070000
133.19999919	104.22070000
133.23999919	100.62560000
133.27999919	97.03055000
133.31999919	97.03055000
133.35999919	98.83114000
133.39999919	95.23605000
133.43999919	88.04590000
133.47999919	79.06125000
133.51999919	61.09195000
133.55999919	35.93859000
133.59999919	7.18405700
133.63999919	-21.55827000
133.67999919	-50.31281000
133.71999919	-80.86184000
133.75999919	-107.81580000
133.79999919	-131.17470000
133.83999919	-150.94450000
133.87999919	-152.73900000
133.91999919	-149.14400000
133.95999919	-120.39550000
133.99999919	-97.03055000
134.03999919	-79.06125000
134.07999919	-70.07660000
134.11999918	-64.68703000
134.15999918	-64.68703000
134.19999918	-66.48762000
134.23999918	-68.28211000
134.27999918	-71.87719000
134.31999918	-73.67168000
134.35999918	-79.06125000
134.39999918	-84.45692000
134.43999918	-88.04590000
134.47999918	-88.04590000
134.51999918	-82.65633000
134.55999918	-71.87719000
134.59999918	-61.09195000
134.63999918	-50.31281000
134.67999918	-39.52757000
134.71999918	-35.93859000
134.75999918	-30.54292000
134.79999918	-26.95395000
134.83999918	-17.96930000
134.87999918	-10.77914000
134.91999918	0.00000000
134.95999918	14.37422000
134.99999918	30.54292000
135.03999918	48.51222000
135.07999918	66.48762000
135.11999918	86.25141000
135.15999918	107.81580000
135.19999918	129.38020000
135.23999918	143.75440000
135.27999918	152.73900000
135.31999918	145.54890000
135.35999918	136.56420000
135.39999918	122.19000000
135.43999918	118.59490000
135.47999918	116.80040000
135.51999918	113.20540000
135.55999918	106.01520000
135.59999918	104.22070000
135.63999918	100.62560000
135.67999918	98.83114000
135.71999918	98.83114000
135.75999917	86.25141000
135.79999917	84.45692000
135.83999917	93.44157000
135.87999917	86.25141000
135.91999917	62.89254000
135.95999917	35.93859000
135.99999917	7.18405700
136.03999917	-16.16870000
136.07999917	-46.71774000
136.11999917	-79.06125000
136.15999917	-106.01520000
136.19999917	-129.38020000
136.23999917	-145.54890000
136.27999917	-159.92920000
136.31999917	-147.34950000
136.35999917	-129.38020000
136.39999917	-107.81580000
136.43999917	-88.04590000
136.47999917	-77.26676000
136.51999917	-71.87719000
136.55999917	-71.87719000
136.59999917	-70.07660000
136.63999917	-71.87719000
136.67999917	-73.67168000
136.71999917	-79.06125000
136.75999917	-80.86184000
136.79999917	-88.04590000
136.83999917	-89.84650000
136.87999917	-93.44157000
136.91999917	-88.04590000
136.95999917	-79.06125000
136.99999917	-68.28211000
137.03999917	-55.70238000
137.07999917	-44.92325000
137.11999917	-37.73308000
137.15999917	-30.54292000
137.19999917	-26.95395000
137.23999917	-21.55827000
137.27999917	-14.37422000
137.31999917	-3.58897700
137.35999917	12.57363000
137.39999916	25.15336000
137.43999916	37.73308000
137.47999916	57.50298000
137.51999916	77.26676000
137.55999916	93.44157000
137.59999916	116.80040000
137.63999916	134.76970000
137.67999916	147.34950000
137.71999916	154.53350000
137.75999916	141.95990000
137.79999916	129.38020000
137.83999916	116.80040000
137.87999916	118.59490000
137.91999916	111.41090000
137.95999916	107.81580000
137.99999916	104.22070000
138.03999916	100.62560000
138.07999916	95.23605000
138.11999916	93.44157000
138.15999916	91.64098000
138.19999916	91.64098000
138.23999916	88.04590000
138.27999916	79.06125000
138.31999916	66.48762000
138.35999916	46.71774000
138.39999916	19.76379000
138.43999916	-10.77914000
138.47999916	-37.73308000
138.51999916	-66.48762000
138.55999916	-95.23605000
138.59999916	-122.19000000
138.63999916	-141.95990000
138.67999916	-150.94450000
138.71999916	-152.73900000
138.75999916	-136.56420000
138.79999916	-109.61030000
138.83999916	-86.25141000
138.87999916	-71.87719000
138.91999916	-68.28211000
138.95999916	-64.68703000
138.99999916	-64.68703000
139.03999915	-70.07660000
139.07999915	-71.87719000
139.11999915	-73.67168000
139.15999915	-79.06125000
139.19999915	-84.45692000
139.23999915	-89.84650000
139.27999915	-91.64098000
139.31999915	-89.84650000
139.35999915	-84.45692000
139.39999915	-71.87719000
139.43999915	-59.29746000
139.47999915	-48.51222000
139.51999915	-39.52757000
139.55999915	-35.93859000
139.59999915	-30.54292000
139.63999915	-28.74844000
139.67999915	-21.55827000
139.71999915	-14.37422000
139.75999915	0.00000000
139.79999915	14.37422000
139.83999915	30.54292000
139.87999915	50.31281000
139.91999915	70.07660000
139.95999915	91.64098000
139.99999915	115.00600000
140.03999915	134.76970000
140.07999915	147.34950000
140.11999915	158.12860000
140.15999915	147.34950000
140.19999915	134.76970000
140.23999915	118.59490000
140.27999915	118.59490000
140.31999915	113.20540000
140.35999915	107.81580000
140.39999915	104.22070000
140.43999915	100.62560000
140.47999915	97.03055000
140.51999915	95.23605000
140.55999915	93.44157000
140.59999915	93.44157000
140.63999915	86.25141000
140.67999915	84.45692000
140.71999914	75.47227000
140.75999914	59.29746000
140.79999914	34.13800000
140.83999914	0.00000000
140.87999914	-28.74844000
140.91999914	-57.50298000
140.95999914	-86.25141000
140.99999914	-113.20540000
141.03999914	-136.56420000
141.07999914	-149.14400000
141.11999914	-158.12860000
141.15999914	-138.36480000
141.19999914	-122.19000000
141.23999914	-93.44157000
141.27999914	-82.65633000
141.31999914	-75.47227000
141.35999914	-68.28211000
141.39999914	-66.48762000
141.43999914	-70.07660000
141.47999914	-71.87719000
141.51999914	-73.67168000
141.55999914	-77.26676000
141.59999914	-82.65633000
141.63999914	-86.25141000
141.67999914	-89.84650000
141.71999914	-89.84650000
141.75999914	-86.25141000
141.79999914	-73.67168000
141.83999914	-61.09195000
141.87999914	-50.31281000
141.91999914	-41.32816000
141.95999914	-35.93859000
141.99999914	-30.54292000
142.03999914	-26.95395000
142.07999914	-21.55827000
142.11999914	-12.57363000
142.15999914	-3.58897700
142.19999914	10.77914000
142.23999914	26.95395000
142.27999914	44.92325000
142.31999914	61.09195000
142.35999913	79.06125000
142.39999913	100.62560000
142.43999913	122.19000000
142.47999913	141.95990000
142.51999913	150.94450000
142.55999913	150.94450000
142.59999913	140.15930000
142.63999913	127.57960000
142.67999913	118.59490000
142.71999913	116.80040000
142.75999913	111.41090000
142.79999913	104.22070000
142.83999913	102.42620000
142.87999913	100.62560000
142.91999913	95.23605000
142.95999913	91.64098000
142.99999913	91.64098000
143.03999913	89.84650000
143.07999913	84.45692000
143.11999913	75.47227000
143.15999913	61.09195000
143.19999913	37.73308000
143.23999913	8.98464900
143.27999913	-21.55827000
143.31999913	-50.31281000
143.35999913	-79.06125000
143.39999913	-107.81580000
143.43999913	-131.17470000
143.47999913	-150.94450000
143.51999913	-154.53350000
143.55999913	-156.33410000
143.59999913	-129.38020000
143.63999913	-106.01520000
143.67999913	-86.25141000
143.71999913	-77.26676000
143.75999913	-71.87719000
143.79999913	-66.48762000
143.83999913	-71.87719000
143.87999913	-71.87719000
143.91999913	-73.67168000
143.95999913	-79.06125000
143.99999912	-82.65633000
144.03999912	-88.04590000
144.07999912	-91.64098000
144.11999912	-91.64098000
144.15999912	-88.04590000
144.19999912	-80.86184000
144.23999912	-66.48762000
144.27999912	-53.90789000
144.31999912	-44.92325000
144.35999912	-37.73308000
144.39999912	-32.34352000
144.43999912	-26.95395000
144.47999912	-23.35887000
144.51999912	-16.16870000
144.55999912	-7.18405700
144.59999912	7.18405700
144.63999912	21.55827000
144.67999912	35.93859000
144.71999912	57.50298000
144.75999912	75.47227000
144.79999912	97.03055000
144.83999912	118.59490000
144.87999912	136.56420000
144.91999912	149.14400000
144.95999912	158.12860000
144.99999912	143.75440000
145.03999912	129.38020000
145.07999912	116.80040000
145.11999912	116.80040000
145.15999912	111.41090000
145.19999912	106.01520000
145.23999912	100.62560000
145.27999912	98.83114000
145.31999912	97.03055000
145.35999912	93.44157000
145.39999912	91.64098000
145.43999912	93.44157000
145.47999912	91.64098000
145.51999912	88.04590000
145.55999912	82.65633000
145.59999912	53.90789000
145.63999911	28.74844000
145.67999911	16.16870000
145.71999911	-16.16870000
145.75999911	-68.28211000
145.79999911	-115.00600000
145.83999911	-147.34950000
145.87999911	-165.31880000
145.91999911	-190.47820000
145.95999911	-192.27270000
145.99999911	-172.50890000
146.03999911	-123.99060000
146.07999911	-95.23605000
146.11999911	-62.89254000
146.15999911	-57.50298000
146.19999911	-52.10730000
146.23999911	-50.31281000
146.27999911	-50.31281000
146.31999911	-57.50298000
146.35999911	-68.28211000
146.39999911	-71.87719000
146.43999911	-73.67168000
146.47999911	-79.06125000
146.51999911	-84.45692000
146.55999911	-86.25141000
146.59999911	-79.06125000
146.63999911	-68.28211000
146.67999911	-57.50298000
146.71999911	-48.51222000
146.75999911	-43.12265000
146.79999911	-39.52757000
146.83999911	-37.73308000
146.87999911	-35.93859000
146.91999911	-34.13800000
146.95999911	-25.15336000
146.99999911	-12.57363000
147.03999911	5.38956800
147.07999911	25.15336000
147.11999911	48.51222000
147.15999911	71.87719000
147.19999911	97.03055000
147.23999911	125.78510000
147.27999910	143.75440000
147.31999910	154.53350000
147.35999910	167.11330000
147.39999910	150.94450000
147.43999910	136.56420000
147.47999910	120.39550000
147.51999910	120.39550000
147.55999910	115.00600000
147.59999910	107.81580000
147.63999910	102.42620000
147.67999910	98.83114000
147.71999910	95.23605000
147.75999910	88.04590000
147.79999910	86.25141000
147.83999910	88.04590000
147.87999910	86.25141000
147.91999910	80.86184000
147.95999910	71.87719000
147.99999910	55.70238000
148.03999910	28.74844000
148.07999910	1.79448800
148.11999910	-26.95395000
148.15999910	-57.50298000
148.19999910	-86.25141000
148.23999910	-115.00600000
148.27999910	-136.56420000
148.31999910	-150.94450000
148.35999910	-152.73900000
148.39999910	-145.54890000
148.43999910	-122.19000000
148.47999910	-107.81580000
148.51999910	-89.84650000
148.55999910	-82.65633000
148.59999910	-75.47227000
148.63999910	-75.47227000
148.67999910	-75.47227000
148.71999910	-77.26676000
148.75999910	-79.06125000
148.79999910	-82.65633000
148.83999910	-86.25141000
148.87999910	-89.84650000
148.91999909	-91.64098000
148.95999909	-91.64098000
148.99999909	-84.45692000
149.03999909	-73.67168000
149.07999909	-61.09195000
149.11999909	-50.31281000
149.15999909	-41.32816000
149.19999909	-34.13800000
149.23999909	-28.74844000
149.27999909	-25.15336000
149.31999909	-21.55827000
149.35999909	-14.37422000
149.39999909	-3.58897700
149.43999909	7.18405700
149.47999909	19.76379000
149.51999909	35.93859000
149.55999909	53.90789000
149.59999909	73.67168000
149.63999909	93.44157000
149.67999909	115.00600000
149.71999909	134.76970000
149.75999909	143.75440000
149.79999909	156.33410000
149.83999909	141.95990000
149.87999909	132.97520000
149.91999909	115.00600000
149.95999909	118.59490000
149.99999909	113.20540000
150.03999909	107.81580000
150.07999909	104.22070000
150.11999909	100.62560000
150.15999909	97.03055000
150.19999909	93.44157000
150.23999909	91.64098000
150.27999909	89.84650000
150.31999909	86.25141000
150.35999909	75.47227000
150.39999909	61.09195000
150.43999909	37.73308000
150.47999909	7.18405700
150.51999909	-21.55827000
150.55999908	-48.51222000
150.59999908	-75.47227000
150.63999908	-102.42620000
150.67999908	-129.38020000
150.71999908	-141.95990000
150.75999908	-150.94450000
150.79999908	-143.75440000
150.83999908	-131.17470000
150.87999908	-116.80040000
150.91999908	-102.42620000
150.95999908	-93.44157000
150.99999908	-86.25141000
151.03999908	-84.45692000
151.07999908	-82.65633000
151.11999908	-82.65633000
151.15999908	-82.65633000
151.19999908	-86.25141000
151.23999908	-88.04590000
151.27999908	-91.64098000
151.31999908	-93.44157000
151.35999908	-95.23605000
151.39999908	-89.84650000
151.43999908	-82.65633000
151.47999908	-73.67168000
151.51999908	-64.68703000
151.55999908	-53.90789000
151.59999908	-46.71774000
151.63999908	-41.32816000
151.67999908	-34.13800000
151.71999908	-28.74844000
151.75999908	-21.55827000
151.79999908	-12.57363000
151.83999908	-1.79448800
151.87999908	10.77914000
151.91999908	26.95395000
151.95999908	43.12265000
151.99999908	61.09195000
152.03999908	82.65633000
152.07999908	106.01520000
152.11999908	120.39550000
152.15999908	136.56420000
152.19999908	143.75440000
152.23999907	152.73900000
152.27999907	140.15930000
152.31999907	127.57960000
152.35999907	116.80040000
152.39999907	115.00600000
152.43999907	111.41090000
152.47999907	104.22070000
152.51999907	100.62560000
152.55999907	98.83114000
152.59999907	97.03055000
152.63999907	93.44157000
152.67999907	93.44157000
152.71999907	91.64098000
152.75999907	84.45692000
152.79999907	75.47227000
152.83999907	62.89254000
152.87999907	39.52757000
152.91999907	12.57363000
152.95999907	-17.96930000
152.99999907	-46.71774000
153.03999907	-75.47227000
153.07999907	-102.42620000
153.11999907	-125.78510000
153.15999907	-140.15930000
153.19999907	-145.54890000
153.23999907	-141.95990000
153.27999907	-127.57960000
153.31999907	-113.20540000
153.35999907	-93.44157000
153.39999907	-80.86184000
153.43999907	-70.07660000
153.47999907	-71.87719000
153.51999907	-71.87719000
153.55999907	-73.67168000
153.59999907	-75.47227000
153.63999907	-80.86184000
153.67999907	-82.65633000
153.71999907	-88.04590000
153.75999907	-89.84650000
153.79999907	-91.64098000
153.83999907	-89.84650000
153.87999906	-80.86184000
153.91999906	-71.87719000
153.95999906	-62.89254000
153.99999906	-52.10730000
154.03999906	-44.92325000
154.07999906	-39.52757000
154.11999906	-34.13800000
154.15999906	-28.74844000
154.19999906	-23.35887000
154.23999906	-16.16870000
154.27999906	-5.38956800
154.31999906	7.18405700
154.35999906	25.15336000
154.39999906	44.92325000
154.43999906	64.68703000
154.47999906	86.25141000
154.51999906	107.81580000
154.55999906	129.38020000
154.59999906	143.75440000
154.63999906	154.53350000
154.67999906	150.94450000
154.71999906	140.15930000
154.75999906	123.99060000
154.79999906	120.39550000
154.83999906	118.59490000
154.87999906	111.41090000
154.91999906	106.01520000
154.95999906	104.22070000
154.99999906	100.62560000
155.03999906	95.23605000
155.07999906	95.23605000
155.11999906	97.03055000
155.15999906	91.64098000
155.19999906	88.04590000
155.23999906	79.06125000
155.27999906	64.68703000
155.31999906	41.32816000
155.35999906	12.57363000
155.39999906	-14.37422000
155.43999906	-57.50298000
155.47999906	-86.25141000
155.51999905	-100.62560000
155.55999905	-122.19000000
155.59999905	-145.54890000
155.63999905	-158.12860000
155.67999905	-143.75440000
155.71999905	-118.59490000
155.75999905	-97.03055000
155.79999905	-86.25141000
155.83999905	-73.67168000
155.87999905	-68.28211000
155.91999905	-66.48762000
155.95999905	-68.28211000
155.99999905	-70.07660000
156.03999905	-71.87719000
156.07999905	-75.47227000
156.11999905	-80.86184000
156.15999905	-84.45692000
156.19999905	-88.04590000
156.23999905	-89.84650000
156.27999905	-86.25141000
156.31999905	-75.47227000
156.35999905	-62.89254000
156.39999905	-53.90789000
156.43999905	-43.12265000
156.47999905	-35.93859000
156.51999905	-32.34352000
156.55999905	-30.54292000
156.59999905	-23.35887000
156.63999905	-16.16870000
156.67999905	-8.98464900
156.71999905	1.79448800
156.75999905	14.37422000
156.79999905	32.34352000
156.83999905	52.10730000
156.87999905	71.87719000
156.91999905	93.44157000
156.95999905	115.00600000
156.99999905	136.56420000
157.03999905	149.14400000
157.07999905	158.12860000
157.11999905	145.54890000
157.15999904	136.56420000
157.19999904	120.39550000
157.23999904	118.59490000
157.27999904	115.00600000
157.31999904	109.61030000
157.35999904	102.42620000
157.39999904	100.62560000
157.43999904	97.03055000
157.47999904	95.23605000
157.51999904	93.44157000
157.55999904	95.23605000
157.59999904	91.64098000
157.63999904	84.45692000
157.67999904	73.67168000
157.71999904	53.90789000
157.75999904	26.95395000
157.79999904	-3.58897700
157.83999904	-34.13800000
157.87999904	-64.68703000
157.91999904	-93.44157000
157.95999904	-122.19000000
157.99999904	-143.75440000
158.03999904	-156.33410000
158.07999904	-159.92920000
158.11999904	-147.34950000
158.15999904	-125.78510000
158.19999904	-107.81580000
158.23999904	-97.03055000
158.27999904	-86.25141000
158.31999904	-80.86184000
158.35999904	-80.86184000
158.39999904	-80.86184000
158.43999904	-82.65633000
158.47999904	-80.86184000
158.51999904	-86.25141000
158.55999904	-88.04590000
158.59999904	-91.64098000
158.63999904	-93.44157000
158.67999904	-91.64098000
158.71999904	-84.45692000
158.75999904	-73.67168000
158.79999903	-62.89254000
158.83999903	-52.10730000
158.87999903	-43.12265000
158.91999903	-35.93859000
158.95999903	-30.54292000
158.99999903	-26.95395000
159.03999903	-21.55827000
159.07999903	-10.77914000
159.11999903	0.00000000
159.15999903	10.77914000
159.19999903	23.35887000
159.23999903	37.73308000
159.27999903	55.70238000
159.31999903	71.87719000
159.35999903	91.64098000
159.39999903	111.41090000
159.43999903	131.17470000
159.47999903	141.95990000
159.51999903	150.94450000
159.55999903	147.34950000
159.59999903	132.97520000
159.63999903	118.59490000
159.67999903	115.00600000
159.71999903	113.20540000
159.75999903	107.81580000
159.79999903	102.42620000
159.83999903	98.83114000
159.87999903	95.23605000
159.91999903	91.64098000
159.95999903	88.04590000
159.99999903	86.25141000
160.03999903	80.86184000
160.07999903	71.87719000
160.11999903	57.50298000
160.15999903	35.93859000
160.19999903	10.77914000
160.23999903	-19.76379000
160.27999903	-50.31281000
160.31999903	-79.06125000
160.35999903	-104.22070000
160.39999903	-127.57960000
160.43999902	-141.95990000
160.47999902	-152.73900000
160.51999902	-150.94450000
160.55999902	-138.36480000
160.59999902	-106.01520000
160.63999902	-84.45692000
160.67999902	-68.28211000
160.71999902	-66.48762000
160.75999902	-62.89254000
160.79999902	-64.68703000
160.83999902	-70.07660000
160.87999902	-73.67168000
160.91999902	-79.06125000
160.95999902	-82.65633000
160.99999902	-88.04590000
161.03999902	-93.44157000
161.07999902	-93.44157000
161.11999902	-93.44157000
161.15999902	-86.25141000
161.19999902	-73.67168000
161.23999902	-61.09195000
161.27999902	-52.10730000
161.31999902	-43.12265000
161.35999902	-37.73308000
161.39999902	-35.93859000
161.43999902	-28.74844000
161.47999902	-26.95395000
161.51999902	-17.96930000
161.55999902	-7.18405700
161.59999902	7.18405700
161.63999902	21.55827000
161.67999902	41.32816000
161.71999902	62.89254000
161.75999902	86.25141000
161.79999902	111.41090000
161.83999902	134.76970000
161.87999902	150.94450000
161.91999902	167.11330000
161.95999902	156.33410000
161.99999902	140.15930000
162.03999902	120.39550000
162.07999901	120.39550000
162.11999901	118.59490000
162.15999901	113.20540000
162.19999901	104.22070000
162.23999901	100.62560000
162.27999901	98.83114000
162.31999901	95.23605000
162.35999901	93.44157000
162.39999901	93.44157000
162.43999901	91.64098000
162.47999901	88.04590000
162.51999901	79.06125000
162.55999901	61.09195000
162.59999901	34.13800000
162.63999901	3.58897700
162.67999901	-25.15336000
162.71999901	-55.70238000
162.75999901	-86.25141000
162.79999901	-115.00600000
162.83999901	-136.56420000
162.87999901	-145.54890000
162.91999901	-158.12860000
162.95999901	-134.76970000
162.99999901	-115.00600000
163.03999901	-88.04590000
163.07999901	-82.65633000
163.11999901	-71.87719000
163.15999901	-66.48762000
163.19999901	-66.48762000
163.23999901	-70.07660000
163.27999901	-71.87719000
163.31999901	-73.67168000
163.35999901	-79.06125000
163.39999901	-84.45692000
163.43999901	-88.04590000
163.47999901	-89.84650000
163.51999901	-89.84650000
163.55999901	-86.25141000
163.59999901	-73.67168000
163.63999901	-59.29746000
163.67999901	-50.31281000
163.71999900	-43.12265000
163.75999900	-35.93859000
163.79999900	-32.34352000
163.83999900	-28.74844000
163.87999900	-23.35887000
163.91999900	-16.16870000
163.95999900	-7.18405700
163.99999900	5.38956800
164.03999900	19.76379000
164.07999900	35.93859000
164.11999900	57.50298000
164.15999900	77.26676000
164.19999900	98.83114000
164.23999900	120.39550000
164.27999900	138.36480000
164.31999900	149.14400000
164.35999900	159.92920000
164.39999900	145.54890000
164.43999900	132.97520000
164.47999900	118.59490000
164.51999900	118.59490000
164.55999900	113.20540000
164.59999900	107.81580000
164.63999900	102.42620000
164.67999900	100.62560000
164.71999900	98.83114000
164.75999900	95.23605000
164.79999900	93.44157000
164.83999900	93.44157000
164.87999900	89.84650000
164.91999900	80.86184000
164.95999900	68.28211000
164.99999900	48.51222000
165.03999900	19.76379000
165.07999900	-10.77914000
165.11999900	-39.52757000
165.15999900	-68.28211000
165.19999900	-97.03055000
165.23999900	-116.80040000
165.27999900	-147.34950000
165.31999900	-150.94450000
165.35999900	-132.97520000
165.39999899	-113.20540000
165.43999899	-107.81580000
165.47999899	-97.03055000
165.51999899	-86.25141000
165.55999899	-75.47227000
165.59999899	-73.67168000
165.63999899	-77.26676000
165.67999899	-75.47227000
165.71999899	-79.06125000
165.75999899	-80.86184000
165.79999899	-86.25141000
165.83999899	-86.25141000
165.87999899	-89.84650000
165.91999899	-91.64098000
165.95999899	-86.25141000
165.99999899	-75.47227000
166.03999899	-66.48762000
166.07999899	-57.50298000
166.11999899	-46.71774000
166.15999899	-39.52757000
166.19999899	-35.93859000
166.23999899	-28.74844000
166.27999899	-23.35887000
166.31999899	-16.16870000
166.35999899	-7.18405700
166.39999899	3.58897700
166.43999899	19.76379000
166.47999899	35.93859000
166.51999899	53.90789000
166.55999899	71.87719000
166.59999899	89.84650000
166.63999899	107.81580000
166.67999899	125.78510000
166.71999899	141.95990000
166.75999899	149.14400000
166.79999899	147.34950000
166.83999899	138.36480000
166.87999899	122.19000000
166.91999899	118.59490000
166.95999899	118.59490000
166.99999899	107.81580000
167.03999898	104.22070000
167.07999898	104.22070000
167.11999898	100.62560000
167.15999898	97.03055000
167.19999898	95.23605000
167.23999898	95.23605000
167.27999898	91.64098000
167.31999898	84.45692000
167.35999898	75.47227000
167.39999898	62.89254000
167.43999898	39.52757000
167.47999898	12.57363000
167.51999898	-17.96930000
167.55999898	-44.92325000
167.59999898	-75.47227000
167.63999898	-102.42620000
167.67999898	-127.57960000
167.71999898	-143.75440000
167.75999898	-154.53350000
167.79999898	-149.14400000
167.83999898	-131.17470000
167.87999898	-104.22070000
167.91999898	-89.84650000
167.95999898	-71.87719000
167.99999898	-68.28211000
168.03999898	-66.48762000
168.07999898	-68.28211000
168.11999898	-71.87719000
168.15999898	-79.06125000
168.19999898	-102.42620000
168.23999898	-116.80040000
168.27999898	-104.22070000
168.31999898	-86.25141000
168.35999898	-84.45692000
168.39999898	-80.86184000
168.43999898	-50.31281000
168.47999898	-16.16870000
168.51999898	-3.58897700
168.55999898	-10.77914000
168.59999898	-25.15336000
168.63999898	-30.54292000
168.67999897	-28.74844000
168.71999897	-28.74844000
168.75999897	-37.73308000
168.79999897	-35.93859000
168.83999897	-16.16870000
168.87999897	10.77914000
168.91999897	28.74844000
168.95999897	41.32816000
168.99999897	59.29746000
169.03999897	89.84650000
169.07999897	118.59490000
169.11999897	136.56420000
169.15999897	147.34950000
169.19999897	154.53350000
169.23999897	143.75440000
169.27999897	131.17470000
169.31999897	125.78510000
169.35999897	123.99060000
169.39999897	120.39550000
169.43999897	116.80040000
169.47999897	118.59490000
169.51999897	115.00600000
169.55999897	109.61030000
169.59999897	100.62560000
169.63999897	95.23605000
169.67999897	93.44157000
169.71999897	86.25141000
169.75999897	73.67168000
169.79999897	59.29746000
169.83999897	39.52757000
169.87999897	16.16870000
169.91999897	-10.77914000
169.95999897	-37.73308000
169.99999897	-64.68703000
170.03999897	-93.44157000
170.07999897	-118.59490000
170.11999897	-141.95990000
170.15999897	-158.12860000
170.19999897	-165.31880000
170.23999897	-145.54890000
170.27999897	-120.39550000
170.31999896	-95.23605000
170.35999896	-84.45692000
170.39999896	-75.47227000
170.43999896	-68.28211000
170.47999896	-64.68703000
170.51999896	-68.28211000
170.55999896	-71.87719000
170.59999896	-77.26676000
170.63999896	-82.65633000
170.67999896	-88.04590000
170.71999896	-93.44157000
170.75999896	-97.03055000
170.79999896	-97.03055000
170.83999896	-89.84650000
170.87999896	-77.26676000
170.91999896	-64.68703000
170.95999896	-53.90789000
170.99999896	-44.92325000
171.03999896	-37.73308000
171.07999896	-32.34352000
171.11999896	-26.95395000
171.15999896	-21.55827000
171.19999896	-12.57363000
171.23999896	-1.79448800
171.27999896	10.77914000
171.31999896	23.35887000
171.35999896	41.32816000
171.39999896	61.09195000
171.43999896	80.86184000
171.47999896	102.42620000
171.51999896	123.99060000
171.55999896	141.95990000
171.59999896	150.94450000
171.63999896	154.53350000
171.67999896	140.15930000
171.71999896	123.99060000
171.75999896	111.41090000
171.79999896	113.20540000
171.83999896	107.81580000
171.87999896	104.22070000
171.91999896	102.42620000
171.95999895	102.42620000
171.99999895	100.62560000
172.03999895	93.44157000
172.07999895	91.64098000
172.11999895	89.84650000
172.15999895	86.25141000
172.19999895	75.47227000
172.23999895	59.29746000
172.27999895	35.93859000
172.31999895	7.18405700
172.35999895	-23.35887000
172.39999895	-50.31281000
172.43999895	-80.86184000
172.47999895	-109.61030000
172.51999895	-129.38020000
172.55999895	-145.54890000
172.59999895	-147.34950000
172.63999895	-140.15930000
172.67999895	-122.19000000
172.71999895	-104.22070000
172.75999895	-89.84650000
172.79999895	-79.06125000
172.83999895	-75.47227000
172.87999895	-73.67168000
172.91999895	-73.67168000
172.95999895	-73.67168000
172.99999895	-75.47227000
173.03999895	-79.06125000
173.07999895	-82.65633000
173.11999895	-86.25141000
173.15999895	-88.04590000
173.19999895	-89.84650000
173.23999895	-86.25141000
173.27999895	-77.26676000
173.31999895	-66.48762000
173.35999895	-57.50298000
173.39999895	-50.31281000
173.43999895	-43.12265000
173.47999895	-39.52757000
173.51999895	-35.93859000
173.55999895	-32.34352000
173.59999894	-25.15336000
173.63999894	-16.16870000
173.67999894	-3.58897700
173.71999894	10.77914000
173.75999894	28.74844000
173.79999894	48.51222000
173.83999894	70.07660000
173.87999894	91.64098000
173.91999894	115.00600000
173.95999894	136.56420000
173.99999894	147.34950000
174.03999894	159.92920000
174.07999894	149.14400000
174.11999894	138.36480000
174.15999894	122.19000000
174.19999894	118.59490000
174.23999894	115.00600000
174.27999894	107.81580000
174.31999894	104.22070000
174.35999894	100.62560000
174.39999894	98.83114000
174.43999894	93.44157000
174.47999894	93.44157000
174.51999894	93.44157000
174.55999894	91.64098000
174.59999894	86.25141000
174.63999894	75.47227000
174.67999894	57.50298000
174.71999894	32.34352000
174.75999894	1.79448800
174.79999894	-26.95395000
174.83999894	-55.70238000
174.87999894	-86.25141000
174.91999894	-113.20540000
174.95999894	-132.97520000
174.99999894	-147.34950000
175.03999894	-147.34950000
175.07999894	-134.76970000
175.11999894	-125.78510000
175.15999894	-109.61030000
175.19999894	-77.26676000
175.23999893	-64.68703000
175.27999893	-68.28211000
175.31999893	-71.87719000
175.35999893	-71.87719000
175.39999893	-70.07660000
175.43999893	-73.67168000
175.47999893	-79.06125000
175.51999893	-82.65633000
175.55999893	-86.25141000
175.59999893	-89.84650000
175.63999893	-89.84650000
175.67999893	-84.45692000
175.71999893	-75.47227000
175.75999893	-64.68703000
175.79999893	-53.90789000
175.83999893	-43.12265000
175.87999893	-39.52757000
175.91999893	-34.13800000
175.95999893	-30.54292000
175.99999893	-23.35887000
176.03999893	-17.96930000
176.07999893	-8.98464900
176.11999893	3.58897700
176.15999893	19.76379000
176.19999893	35.93859000
176.23999893	55.70238000
176.27999893	77.26676000
176.31999893	98.83114000
176.35999893	122.19000000
176.39999893	138.36480000
176.43999893	150.94450000
176.47999893	158.12860000
176.51999893	143.75440000
176.55999893	131.17470000
176.59999893	120.39550000
176.63999893	120.39550000
176.67999893	113.20540000
176.71999893	107.81580000
176.75999893	104.22070000
176.79999893	100.62560000
176.83999893	98.83114000
176.87999893	95.23605000
176.91999892	93.44157000
176.95999892	93.44157000
176.99999892	88.04590000
177.03999892	80.86184000
177.07999892	66.48762000
177.11999892	46.71774000
177.15999892	17.96930000
177.19999892	-12.57363000
177.23999892	-37.73308000
177.27999892	-66.48762000
177.31999892	-98.83114000
177.35999892	-122.19000000
177.39999892	-140.15930000
177.43999892	-152.73900000
177.47999892	-150.94450000
177.51999892	-127.57960000
177.55999892	-104.22070000
177.59999892	-84.45692000
177.63999892	-79.06125000
177.67999892	-71.87719000
177.71999892	-68.28211000
177.75999892	-68.28211000
177.79999892	-71.87719000
177.83999892	-73.67168000
177.87999892	-75.47227000
177.91999892	-80.86184000
177.95999892	-86.25141000
177.99999892	-89.84650000
178.03999892	-91.64098000
178.07999892	-88.04590000
178.11999892	-80.86184000
178.15999892	-70.07660000
178.19999892	-57.50298000
178.23999892	-50.31281000
178.27999892	-41.32816000
178.31999892	-35.93859000
178.35999892	-30.54292000
178.39999892	-26.95395000
178.43999892	-19.76379000
178.47999892	-8.98464900
178.51999892	1.79448800
178.55999891	14.37422000
178.59999891	30.54292000
178.63999891	50.31281000
178.67999891	71.87719000
178.71999891	91.64098000
178.75999891	111.41090000
178.79999891	132.97520000
178.83999891	145.54890000
178.87999891	156.33410000
178.91999891	149.14400000
178.95999891	136.56420000
178.99999891	120.39550000
179.03999891	118.59490000
179.07999891	115.00600000
179.11999891	109.61030000
179.15999891	104.22070000
179.19999891	100.62560000
179.23999891	98.83114000
179.27999891	97.03055000
179.31999891	95.23605000
179.35999891	93.44157000
179.39999891	91.64098000
179.43999891	86.25141000
179.47999891	77.26676000
179.51999891	57.50298000
179.55999891	32.34352000
179.59999891	5.38956800
179.63999891	-25.15336000
179.67999891	-53.90789000
179.71999891	-82.65633000
179.75999891	-109.61030000
179.79999891	-129.38020000
179.83999891	-147.34950000
179.87999891	-149.14400000
179.91999891	-138.36480000
179.95999891	-118.59490000
179.99999891	-100.62560000
180.03999891	-84.45692000
180.07999891	-79.06125000
180.11999891	-68.28211000
180.15999891	-68.28211000
180.19999890	-71.87719000
180.23999890	-75.47227000
180.27999890	-77.26676000
180.31999890	-79.06125000
180.35999890	-84.45692000
180.39999890	-88.04590000
180.43999890	-89.84650000
180.47999890	-89.84650000
180.51999890	-86.25141000
180.55999890	-75.47227000
180.59999890	-64.68703000
180.63999890	-53.90789000
180.67999890	-44.92325000
180.71999890	-37.73308000
180.75999890	-32.34352000
180.79999890	-28.74844000
180.83999890	-23.35887000
180.87999890	-14.37422000
180.91999890	-3.58897700
180.95999890	8.98464900
180.99999890	25.15336000
181.03999890	41.32816000
181.07999890	61.09195000
181.11999890	79.06125000
181.15999890	100.62560000
181.19999890	120.39550000
181.23999890	136.56420000
181.27999890	149.14400000
181.31999890	156.33410000
181.35999890	143.75440000
181.39999890	131.17470000
181.43999890	118.59490000
181.47999890	118.59490000
181.51999890	113.20540000
181.55999890	107.81580000
181.59999890	102.42620000
181.63999890	100.62560000
181.67999890	97.03055000
181.71999890	93.44157000
181.75999890	93.44157000
181.79999890	93.44157000
181.83999889	88.04590000
181.87999889	79.06125000
181.91999889	68.28211000
181.95999889	46.71774000
181.99999889	19.76379000
182.03999889	-7.18405700
182.07999889	-34.13800000
182.11999889	-59.29746000
182.15999889	-89.84650000
182.19999889	-122.19000000
182.23999889	-138.36480000
182.27999889	-147.34950000
182.31999889	-147.34950000
182.35999889	-134.76970000
182.39999889	-113.20540000
182.43999889	-97.03055000
182.47999889	-86.25141000
182.51999889	-79.06125000
182.55999889	-73.67168000
182.59999889	-73.67168000
182.63999889	-73.67168000
182.67999889	-73.67168000
182.71999889	-73.67168000
182.75999889	-77.26676000
182.79999889	-82.65633000
182.83999889	-86.25141000
182.87999889	-86.25141000
182.91999889	-86.25141000
182.95999889	-79.06125000
182.99999889	-68.28211000
183.03999889	-57.50298000
183.07999889	-50.31281000
183.11999889	-43.12265000
183.15999889	-37.73308000
183.19999889	-32.34352000
183.23999889	-28.74844000
183.27999889	-23.35887000
183.31999889	-14.37422000
183.35999889	-1.79448800
183.39999889	10.77914000
183.43999889	26.95395000
183.47999888	44.92325000
183.51999888	64.68703000
183.55999888	86.25141000
183.59999888	107.81580000
183.63999888	127.57960000
183.67999888	143.75440000
183.71999888	156.33410000
183.75999888	150.94450000
183.79999888	140.15930000
183.83999888	123.99060000
183.87999888	122.19000000
183.91999888	116.80040000
183.95999888	113.20540000
183.99999888	106.01520000
184.03999888	102.42620000
184.07999888	98.83114000
184.11999888	95.23605000
184.15999888	93.44157000
184.19999888	93.44157000
184.23999888	89.84650000
184.27999888	84.45692000
184.31999888	71.87719000
184.35999888	57.50298000
184.39999888	30.54292000
184.43999888	3.58897700
184.47999888	-26.95395000
184.51999888	-55.70238000
184.55999888	-84.45692000
184.59999888	-109.61030000
184.63999888	-129.38020000
184.67999888	-141.95990000
184.71999888	-141.95990000
184.75999888	-132.97520000
184.79999888	-115.00600000
184.83999888	-100.62560000
184.87999888	-84.45692000
184.91999888	-71.87719000
184.95999888	-71.87719000
184.99999888	-80.86184000
185.03999888	-71.87719000
185.07999888	-62.89254000
185.11999887	-70.07660000
185.15999887	-79.06125000
185.19999887	-84.45692000
185.23999887	-84.45692000
185.27999887	-84.45692000
185.31999887	-86.25141000
185.35999887	-80.86184000
185.39999887	-70.07660000
185.43999887	-59.29746000
185.47999887	-50.31281000
185.51999887	-41.32816000
185.55999887	-35.93859000
185.59999887	-30.54292000
185.63999887	-25.15336000
185.67999887	-17.96930000
185.71999887	-12.57363000
185.75999887	-5.38956800
185.79999887	5.38956800
185.83999887	21.55827000
185.87999887	37.73308000
185.91999887	55.70238000
185.95999887	75.47227000
185.99999887	95.23605000
186.03999887	116.80040000
186.07999887	134.76970000
186.11999887	147.34950000
186.15999887	156.33410000
186.19999887	143.75440000
186.23999887	132.97520000
186.27999887	122.19000000
186.31999887	120.39550000
186.35999887	113.20540000
186.39999887	109.61030000
186.43999887	102.42620000
186.47999887	100.62560000
186.51999887	97.03055000
186.55999887	93.44157000
186.59999887	93.44157000
186.63999887	91.64098000
186.67999887	86.25141000
186.71999887	77.26676000
186.75999886	64.68703000
186.79999886	43.12265000
186.83999886	16.16870000
186.87999886	-14.37422000
186.91999886	-43.12265000
186.95999886	-73.67168000
186.99999886	-98.83114000
187.03999886	-127.57960000
187.07999886	-143.75440000
187.11999886	-150.94450000
187.15999886	-150.94450000
187.19999886	-138.36480000
187.23999886	-111.41090000
187.27999886	-93.44157000
187.31999886	-80.86184000
187.35999886	-79.06125000
187.39999886	-71.87719000
187.43999886	-70.07660000
187.47999886	-71.87719000
187.51999886	-75.47227000
187.55999886	-77.26676000
187.59999886	-80.86184000
187.63999886	-84.45692000
187.67999886	-88.04590000
187.71999886	-89.84650000
187.75999886	-86.25141000
187.79999886	-79.06125000
187.83999886	-68.28211000
187.87999886	-57.50298000
187.91999886	-48.51222000
187.95999886	-39.52757000
187.99999886	-32.34352000
188.03999886	-28.74844000
188.07999886	-21.55827000
188.11999886	-16.16870000
188.15999886	-5.38956800
188.19999886	5.38956800
188.23999886	19.76379000
188.27999886	34.13800000
188.31999886	50.31281000
188.35999886	68.28211000
188.39999886	88.04590000
188.43999885	107.81580000
188.47999885	127.57960000
188.51999885	141.95990000
188.55999885	152.73900000
188.59999885	150.94450000
188.63999885	138.36480000
188.67999885	122.19000000
188.71999885	118.59490000
188.75999885	115.00600000
188.79999885	109.61030000
188.83999885	104.22070000
188.87999885	100.62560000
188.91999885	97.03055000
188.95999885	93.44157000
188.99999885	89.84650000
189.03999885	88.04590000
189.07999885	84.45692000
189.11999885	77.26676000
189.15999885	64.68703000
189.19999885	46.71774000
189.23999885	19.76379000
189.27999885	-8.98464900
189.31999885	-35.93859000
189.35999885	-64.68703000
189.39999885	-93.44157000
189.43999885	-116.80040000
189.47999885	-138.36480000
189.51999885	-149.14400000
189.55999885	-152.73900000
189.59999885	-143.75440000
189.63999885	-118.59490000
189.67999885	-91.64098000
189.71999885	-77.26676000
189.75999885	-71.87719000
189.79999885	-68.28211000
189.83999885	-70.07660000
189.87999885	-73.67168000
189.91999885	-75.47227000
189.95999885	-75.47227000
189.99999885	-79.06125000
190.03999885	-84.45692000
190.07999884	-91.64098000
190.11999884	-93.44157000
190.15999884	-93.44157000
190.19999884	-86.25141000
190.23999884	-77.26676000
190.27999884	-64.68703000
190.31999884	-52.10730000
190.35999884	-43.12265000
190.39999884	-37.73308000
190.43999884	-32.34352000
190.47999884	-28.74844000
190.51999884	-23.35887000
190.55999884	-14.37422000
190.59999884	-1.79448800
190.63999884	8.98464900
190.67999884	25.15336000
190.71999884	41.32816000
190.75999884	61.09195000
190.79999884	82.65633000
190.83999884	104.22070000
190.87999884	127.57960000
190.91999884	145.54890000
190.95999884	156.33410000
190.99999884	156.33410000
191.03999884	143.75440000
191.07999884	127.57960000
191.11999884	122.19000000
191.15999884	118.59490000
191.19999884	113.20540000
191.23999884	106.01520000
191.27999884	102.42620000
191.31999884	98.83114000
191.35999884	95.23605000
191.39999884	91.64098000
191.43999884	91.64098000
191.47999884	88.04590000
191.51999884	84.45692000
191.55999884	73.67168000
191.59999884	57.50298000
191.63999884	32.34352000
191.67999884	3.58897700
191.71999883	-25.15336000
191.75999883	-50.31281000
191.79999883	-79.06125000
191.83999883	-109.61030000
191.87999883	-132.97520000
191.91999883	-141.95990000
191.95999883	-145.54890000
191.99999883	-132.97520000
192.03999883	-113.20540000
192.07999883	-95.23605000
192.11999883	-79.06125000
192.15999883	-71.87719000
192.19999883	-66.48762000
192.23999883	-68.28211000
192.27999883	-70.07660000
192.31999883	-71.87719000
192.35999883	-71.87719000
192.39999883	-79.06125000
192.43999883	-84.45692000
192.47999883	-88.04590000
192.51999883	-89.84650000
192.55999883	-89.84650000
192.59999883	-86.25141000
192.63999883	-73.67168000
192.67999883	-61.09195000
192.71999883	-52.10730000
192.75999883	-43.12265000
192.79999883	-35.93859000
192.83999883	-32.34352000
192.87999883	-28.74844000
192.91999883	-23.35887000
192.95999883	-14.37422000
192.99999883	-7.18405700
193.03999883	5.38956800
193.07999883	21.55827000
193.11999883	37.73308000
193.15999883	57.50298000
193.19999883	79.06125000
193.23999883	100.62560000
193.27999883	122.19000000
193.31999883	138.36480000
193.35999882	149.14400000
193.39999882	158.12860000
193.43999882	145.54890000
193.47999882	131.17470000
193.51999882	118.59490000
193.55999882	118.59490000
193.59999882	113.20540000
193.63999882	106.01520000
193.67999882	104.22070000
193.71999882	100.62560000
193.75999882	98.83114000
193.79999882	95.23605000
193.83999882	93.44157000
193.87999882	93.44157000
193.91999882	88.04590000
193.95999882	82.65633000
193.99999882	70.07660000
194.03999882	48.51222000
194.07999882	19.76379000
194.11999882	-8.98464900
194.15999882	-37.73308000
194.19999882	-68.28211000
194.23999882	-97.03055000
194.27999882	-122.19000000
194.31999882	-138.36480000
194.35999882	-150.94450000
194.39999882	-140.15930000
194.43999882	-123.99060000
194.47999882	-102.42620000
194.51999882	-89.84650000
194.55999882	-80.86184000
194.59999882	-71.87719000
194.63999882	-70.07660000
194.67999882	-71.87719000
194.71999882	-71.87719000
194.75999882	-71.87719000
194.79999882	-75.47227000
194.83999882	-93.44157000
194.87999882	-91.64098000
194.91999882	-79.06125000
194.95999882	-84.45692000
194.99999881	-88.04590000
195.03999881	-80.86184000
195.07999881	-66.48762000
195.11999881	-52.10730000
195.15999881	-46.71774000
195.19999881	-39.52757000
195.23999881	-30.54292000
195.27999881	-26.95395000
195.31999881	-21.55827000
195.35999881	-14.37422000
195.39999881	-1.79448800
195.43999881	7.18405700
195.47999881	21.55827000
195.51999881	39.52757000
195.55999881	57.50298000
195.59999881	75.47227000
195.63999881	93.44157000
195.67999881	115.00600000
195.71999881	132.97520000
195.75999881	141.95990000
195.79999881	150.94450000
195.83999881	143.75440000
195.87999881	132.97520000
195.91999881	118.59490000
195.95999881	116.80040000
195.99999881	113.20540000
196.03999881	109.61030000
196.07999881	104.22070000
196.11999881	102.42620000
196.15999881	100.62560000
196.19999881	98.83114000
196.23999881	95.23605000
196.27999881	93.44157000
196.31999881	89.84650000
196.35999881	84.45692000
196.39999881	71.87719000
196.43999881	55.70238000
196.47999881	30.54292000
196.51999881	0.00000000
196.55999881	-26.95395000
196.59999881	-55.70238000
196.63999880	-86.25141000
196.67999880	-107.81580000
196.71999880	-131.17470000
196.75999880	-147.34950000
196.79999880	-149.14400000
196.83999880	-143.75440000
196.87999880	-125.78510000
196.91999880	-111.41090000
196.95999880	-97.03055000
196.99999880	-89.84650000
197.03999880	-84.45692000
197.07999880	-80.86184000
197.11999880	-79.06125000
197.15999880	-79.06125000
197.19999880	-80.86184000
197.23999880	-82.65633000
197.27999880	-86.25141000
197.31999880	-88.04590000
197.35999880	-89.84650000
197.39999880	-89.84650000
197.43999880	-86.25141000
197.47999880	-73.67168000
197.51999880	-64.68703000
197.55999880	-55.70238000
197.59999880	-44.92325000
197.63999880	-39.52757000
197.67999880	-32.34352000
197.71999880	-25.15336000
197.75999880	-19.76379000
197.79999880	-10.77914000
197.83999880	0.00000000
197.87999880	10.77914000
197.91999880	25.15336000
197.95999880	41.32816000
197.99999880	57.50298000
198.03999880	73.67168000
198.07999880	93.44157000
198.11999880	113.20540000
198.15999880	129.38020000
198.19999880	141.95990000
198.23999880	150.94450000
198.27999879	143.75440000
198.31999879	134.76970000
198.35999879	118.59490000
198.39999879	116.80040000
198.43999879	115.00600000
198.47999879	100.62560000
198.51999879	75.47227000
198.55999879	61.09195000
198.59999879	70.07660000
198.63999879	88.04590000
198.67999879	91.64098000
198.71999879	98.83114000
198.75999879	111.41090000
198.79999879	125.78510000
198.83999879	120.39550000
198.87999879	84.45692000
198.91999879	35.93859000
198.95999879	-8.98464900
198.99999879	-39.52757000
199.03999879	-75.47227000
199.07999879	-116.80040000
199.11999879	-150.94450000
199.15999879	-161.72370000
199.19999879	-161.72370000
199.23999879	-158.12860000
199.27999879	-152.73900000
199.31999879	-136.56420000
199.35999879	-113.20540000
199.39999879	-93.44157000
199.43999879	-88.04590000
199.47999879	-88.04590000
199.51999879	-88.04590000
199.55999879	-86.25141000
199.59999879	-82.65633000
199.63999879	-82.65633000
199.67999879	-86.25141000
199.71999879	-88.04590000
199.75999879	-84.45692000
199.79999879	-79.06125000
199.83999879	-73.67168000
199.87999879	-70.07660000
199.91999878	-70.07660000
199.95999878	-62.89254000
199.99999878	-55.70238000
200.03999878	-50.31281000
200.07999878	-50.31281000
200.11999878	-50.31281000
