Time	Channel A
(us)	(mV)

0.00000000	75.47227000
0.04000000	80.86184000
0.08000000	89.84650000
0.12000000	97.03055000
0.16000000	102.42620000
0.20000000	111.41090000
0.24000000	118.59490000
0.28000000	122.19000000
0.32000000	129.38020000
0.36000000	132.97520000
0.40000000	136.56420000
0.44000000	134.76970000
0.48000000	132.97520000
0.52000000	129.38020000
0.56000000	123.99060000
0.60000000	115.00600000
0.64000000	107.81580000
0.68000000	95.23605000
0.72000000	84.45692000
0.76000000	70.07660000
0.80000000	57.50298000
0.83999999	43.12265000
0.87999999	28.74844000
0.91999999	17.96930000
0.95999999	5.38956800
0.99999999	-7.18405700
1.03999999	-17.96930000
1.07999999	-28.74844000
1.11999999	-35.93859000
1.15999999	-43.12265000
1.19999999	-50.31281000
1.23999999	-59.29746000
1.27999999	-64.68703000
1.31999999	-70.07660000
1.35999999	-75.47227000
1.39999999	-82.65633000
1.43999999	-88.04590000
1.47999999	-93.44157000
1.51999999	-100.62560000
1.55999999	-107.81580000
1.59999999	-113.20540000
1.63999999	-116.80040000
1.67999999	-120.39550000
1.71999999	-123.99060000
1.75999999	-125.78510000
1.79999999	-125.78510000
1.83999999	-125.78510000
1.87999999	-122.19000000
1.91999999	-116.80040000
1.95999999	-111.41090000
1.99999999	-102.42620000
2.03999999	-91.64098000
2.07999999	-80.86184000
2.11999999	-68.28211000
2.15999999	-55.70238000
2.19999999	-41.32816000
2.23999999	-28.74844000
2.27999999	-14.37422000
2.31999999	0.00000000
2.35999999	12.57363000
2.39999999	23.35887000
2.43999999	34.13800000
2.47999998	43.12265000
2.51999998	52.10730000
2.55999998	61.09195000
2.59999998	68.28211000
2.63999998	73.67168000
2.67999998	80.86184000
2.71999998	88.04590000
2.75999998	95.23605000
2.79999998	104.22070000
2.83999998	111.41090000
2.87999998	116.80040000
2.91999998	123.99060000
2.95999998	129.38020000
2.99999998	132.97520000
3.03999998	136.56420000
3.07999998	136.56420000
3.11999998	134.76970000
3.15999998	131.17470000
3.19999998	127.57960000
3.23999998	118.59490000
3.27999998	109.61030000
3.31999998	98.83114000
3.35999998	86.25141000
3.39999998	73.67168000
3.43999998	59.29746000
3.47999998	44.92325000
3.51999998	30.54292000
3.55999998	19.76379000
3.59999998	7.18405700
3.63999998	-5.38956800
3.67999998	-14.37422000
3.71999998	-25.15336000
3.75999998	-34.13800000
3.79999998	-41.32816000
3.83999998	-50.31281000
3.87999998	-55.70238000
3.91999998	-62.89254000
3.95999998	-68.28211000
3.99999998	-73.67168000
4.03999998	-79.06125000
4.07999998	-86.25141000
4.11999997	-91.64098000
4.15999997	-98.83114000
4.19999997	-106.01520000
4.23999997	-111.41090000
4.27999997	-116.80040000
4.31999997	-120.39550000
4.35999997	-123.99060000
4.39999997	-127.57960000
4.43999997	-127.57960000
4.47999997	-127.57960000
4.51999997	-123.99060000
4.55999997	-123.99060000
4.59999997	-115.00600000
4.63999997	-102.42620000
4.67999997	-91.64098000
4.71999997	-82.65633000
4.75999997	-71.87719000
4.79999997	-57.50298000
4.83999997	-43.12265000
4.87999997	-30.54292000
4.91999997	-16.16870000
4.95999997	-3.58897700
4.99999997	10.77914000
5.03999997	21.55827000
5.07999997	32.34352000
5.11999997	41.32816000
5.15999997	50.31281000
5.19999997	57.50298000
5.23999997	64.68703000
5.27999997	71.87719000
5.31999997	79.06125000
5.35999997	86.25141000
5.39999997	93.44157000
5.43999997	100.62560000
5.47999997	107.81580000
5.51999997	115.00600000
5.55999997	122.19000000
5.59999997	129.38020000
5.63999997	134.76970000
5.67999997	136.56420000
5.71999997	138.36480000
5.75999996	136.56420000
5.79999996	134.76970000
5.83999996	129.38020000
5.87999996	120.39550000
5.91999996	111.41090000
5.95999996	100.62560000
5.99999996	89.84650000
6.03999996	75.47227000
6.07999996	61.09195000
6.11999996	48.51222000
6.15999996	34.13800000
6.19999996	21.55827000
6.23999996	7.18405700
6.27999996	-5.38956800
6.31999996	-14.37422000
6.35999996	-23.35887000
6.39999996	-32.34352000
6.43999996	-39.52757000
6.47999996	-39.52757000
6.51999996	-37.73308000
6.55999996	-37.73308000
6.59999996	-43.12265000
6.63999996	-53.90789000
6.67999996	-70.07660000
6.71999996	-89.84650000
6.75999996	-109.61030000
6.79999996	-129.38020000
6.83999996	-143.75440000
6.87999996	-150.94450000
6.91999996	-149.14400000
6.95999996	-141.95990000
6.99999996	-132.97520000
7.03999996	-125.78510000
7.07999996	-118.59490000
7.11999996	-113.20540000
7.15999996	-109.61030000
7.19999996	-106.01520000
7.23999996	-102.42620000
7.27999996	-97.03055000
7.31999996	-88.04590000
7.35999996	-75.47227000
7.39999996	-64.68703000
7.43999995	-52.10730000
7.47999995	-37.73308000
7.51999995	-25.15336000
7.55999995	-10.77914000
7.59999995	0.00000000
7.63999995	10.77914000
7.67999995	19.76379000
7.71999995	26.95395000
7.75999995	32.34352000
7.79999995	37.73308000
7.83999995	43.12265000
7.87999995	50.31281000
7.91999995	57.50298000
7.95999995	66.48762000
7.99999995	79.06125000
8.03999995	89.84650000
8.07999995	102.42620000
8.11999995	113.20540000
8.15999995	122.19000000
8.19999995	129.38020000
8.23999995	132.97520000
8.27999995	136.56420000
8.31999995	136.56420000
8.35999995	138.36480000
8.39999995	138.36480000
8.43999995	134.76970000
8.47999995	131.17470000
8.51999995	125.78510000
8.55999995	116.80040000
8.59999995	106.01520000
8.63999995	91.64098000
8.67999995	77.26676000
8.71999995	61.09195000
8.75999995	44.92325000
8.79999995	30.54292000
8.83999995	16.16870000
8.87999995	5.38956800
8.91999995	-3.58897700
8.95999995	-14.37422000
8.99999995	-21.55827000
9.03999995	-28.74844000
9.07999994	-35.93859000
9.11999994	-43.12265000
9.15999994	-50.31281000
9.19999994	-55.70238000
9.23999994	-62.89254000
9.27999994	-66.48762000
9.31999994	-73.67168000
9.35999994	-79.06125000
9.39999994	-86.25141000
9.43999994	-93.44157000
9.47999994	-97.03055000
9.51999994	-113.20540000
9.55999994	-116.80040000
9.59999994	-115.00600000
9.63999994	-118.59490000
9.67999994	-129.38020000
9.71999994	-131.17470000
9.75999994	-131.17470000
9.79999994	-125.78510000
9.83999994	-125.78510000
9.87999994	-120.39550000
9.91999994	-113.20540000
9.95999994	-100.62560000
9.99999994	-89.84650000
10.03999994	-75.47227000
10.07999994	-61.09195000
10.11999994	-46.71774000
10.15999994	-34.13800000
10.19999994	-19.76379000
10.23999994	-3.58897700
10.27999994	5.38956800
10.31999994	16.16870000
10.35999994	28.74844000
10.39999994	37.73308000
10.43999994	46.71774000
10.47999994	53.90789000
10.51999994	62.89254000
10.55999994	71.87719000
10.59999994	75.47227000
10.63999994	80.86184000
10.67999994	88.04590000
10.71999993	93.44157000
10.75999993	102.42620000
10.79999993	109.61030000
10.83999993	116.80040000
10.87999993	122.19000000
10.91999993	129.38020000
10.95999993	132.97520000
10.99999993	136.56420000
11.03999993	136.56420000
11.07999993	136.56420000
11.11999993	132.97520000
11.15999993	127.57960000
11.19999993	118.59490000
11.23999993	107.81580000
11.27999993	97.03055000
11.31999993	84.45692000
11.35999993	71.87719000
11.39999993	57.50298000
11.43999993	41.32816000
11.47999993	28.74844000
11.51999993	14.37422000
11.55999993	3.58897700
11.59999993	-7.18405700
11.63999993	-19.76379000
11.67999993	-32.34352000
11.71999993	-37.73308000
11.75999993	-44.92325000
11.79999993	-53.90789000
11.83999993	-59.29746000
11.87999993	-64.68703000
11.91999993	-71.87719000
11.95999993	-77.26676000
11.99999993	-82.65633000
12.03999993	-86.25141000
12.07999993	-93.44157000
12.11999993	-100.62560000
12.15999993	-104.22070000
12.19999993	-111.41090000
12.23999993	-115.00600000
12.27999993	-120.39550000
12.31999993	-123.99060000
12.35999992	-125.78510000
12.39999992	-125.78510000
12.43999992	-125.78510000
12.47999992	-122.19000000
12.51999992	-116.80040000
12.55999992	-111.41090000
12.59999992	-102.42620000
12.63999992	-93.44157000
12.67999992	-80.86184000
12.71999992	-68.28211000
12.75999992	-55.70238000
12.79999992	-41.32816000
12.83999992	-26.95395000
12.87999992	-14.37422000
12.91999992	0.00000000
12.95999992	12.57363000
12.99999992	25.15336000
13.03999992	35.93859000
13.07999992	46.71774000
13.11999992	55.70238000
13.15999992	62.89254000
13.19999992	70.07660000
13.23999992	75.47227000
13.27999992	82.65633000
13.31999992	89.84650000
13.35999992	97.03055000
13.39999992	104.22070000
13.43999992	109.61030000
13.47999992	116.80040000
13.51999992	122.19000000
13.55999992	127.57960000
13.59999992	131.17470000
13.63999992	134.76970000
13.67999992	136.56420000
13.71999992	134.76970000
13.75999992	131.17470000
13.79999992	125.78510000
13.83999992	118.59490000
13.87999992	107.81580000
13.91999992	98.83114000
13.95999992	86.25141000
13.99999991	73.67168000
14.03999991	59.29746000
14.07999991	48.51222000
14.11999991	34.13800000
14.15999991	19.76379000
14.19999991	7.18405700
14.23999991	-5.38956800
14.27999991	-14.37422000
14.31999991	-26.95395000
14.35999991	-35.93859000
14.39999991	-46.71774000
14.43999991	-57.50298000
14.47999991	-59.29746000
14.51999991	-61.09195000
14.55999991	-70.07660000
14.59999991	-75.47227000
14.63999991	-82.65633000
14.67999991	-88.04590000
14.71999991	-93.44157000
14.75999991	-100.62560000
14.79999991	-106.01520000
14.83999991	-109.61030000
14.87999991	-116.80040000
14.91999991	-120.39550000
14.95999991	-123.99060000
14.99999991	-125.78510000
15.03999991	-127.57960000
15.07999991	-125.78510000
15.11999991	-122.19000000
15.15999991	-116.80040000
15.19999991	-113.20540000
15.23999991	-104.22070000
15.27999991	-93.44157000
15.31999991	-84.45692000
15.35999991	-70.07660000
15.39999991	-57.50298000
15.43999991	-43.12265000
15.47999991	-30.54292000
15.51999991	-16.16870000
15.55999991	-3.58897700
15.59999991	10.77914000
15.63999990	21.55827000
15.67999990	32.34352000
15.71999990	43.12265000
15.75999990	52.10730000
15.79999990	61.09195000
15.83999990	68.28211000
15.87999990	73.67168000
15.91999990	80.86184000
15.95999990	88.04590000
15.99999990	95.23605000
16.03999990	102.42620000
16.07999990	109.61030000
16.11999990	118.59490000
16.15999990	122.19000000
16.19999990	129.38020000
16.23999990	132.97520000
16.27999990	134.76970000
16.31999990	136.56420000
16.35999990	136.56420000
16.39999990	132.97520000
16.43999990	127.57960000
16.47999990	118.59490000
16.51999990	109.61030000
16.55999990	100.62560000
16.59999990	88.04590000
16.63999990	75.47227000
16.67999990	61.09195000
16.71999990	48.51222000
16.75999990	34.13800000
16.79999990	21.55827000
16.83999990	8.98464900
16.87999990	-1.79448800
16.91999990	-14.37422000
16.95999990	-23.35887000
16.99999990	-34.13800000
17.03999990	-41.32816000
17.07999990	-50.31281000
17.11999990	-57.50298000
17.15999990	-62.89254000
17.19999990	-68.28211000
17.23999990	-73.67168000
17.27999989	-79.06125000
17.31999989	-82.65633000
17.35999989	-84.45692000
17.39999989	-79.06125000
17.43999989	-73.67168000
17.47999989	-91.64098000
17.51999989	-120.39550000
17.55999989	-129.38020000
17.59999989	-132.97520000
17.63999989	-150.94450000
17.67999989	-170.70830000
17.71999989	-168.91380000
17.75999989	-152.73900000
17.79999989	-129.38020000
17.83999989	-115.00600000
17.87999989	-104.22070000
17.91999989	-89.84650000
17.95999989	-70.07660000
17.99999989	-50.31281000
18.03999989	-43.12265000
18.07999989	-41.32816000
18.11999989	-28.74844000
18.15999989	-8.98464900
18.19999989	7.18405700
18.23999989	16.16870000
18.27999989	23.35887000
18.31999989	35.93859000
18.35999989	48.51222000
18.39999989	57.50298000
18.43999989	62.89254000
18.47999989	66.48762000
18.51999989	70.07660000
18.55999989	75.47227000
18.59999989	79.06125000
18.63999989	84.45692000
18.67999989	86.25141000
18.71999989	93.44157000
18.75999989	102.42620000
18.79999989	116.80040000
18.83999989	125.78510000
18.87999989	132.97520000
18.91999989	138.36480000
18.95999988	145.54890000
18.99999988	147.34950000
19.03999988	143.75440000
19.07999988	134.76970000
19.11999988	123.99060000
19.15999988	115.00600000
19.19999988	102.42620000
19.23999988	89.84650000
19.27999988	77.26676000
19.31999988	66.48762000
19.35999988	48.51222000
19.39999988	35.93859000
19.43999988	28.74844000
19.47999988	16.16870000
19.51999988	-5.38956800
19.55999988	-17.96930000
19.59999988	-30.54292000
19.63999988	-35.93859000
19.67999988	-46.71774000
19.71999988	-55.70238000
19.75999988	-59.29746000
19.79999988	-61.09195000
19.83999988	-66.48762000
19.87999988	-71.87719000
19.91999988	-75.47227000
19.95999988	-80.86184000
19.99999988	-88.04590000
20.03999988	-93.44157000
20.07999988	-100.62560000
20.11999988	-107.81580000
20.15999988	-113.20540000
20.19999988	-118.59490000
20.23999988	-122.19000000
20.27999988	-125.78510000
20.31999988	-127.57960000
20.35999988	-127.57960000
20.39999988	-125.78510000
20.43999988	-122.19000000
20.47999988	-116.80040000
20.51999988	-109.61030000
20.55999988	-98.83114000
20.59999987	-89.84650000
20.63999987	-79.06125000
20.67999987	-64.68703000
20.71999987	-50.31281000
20.75999987	-37.73308000
20.79999987	-23.35887000
20.83999987	-7.18405700
20.87999987	7.18405700
20.91999987	19.76379000
20.95999987	30.54292000
20.99999987	41.32816000
21.03999987	50.31281000
21.07999987	57.50298000
21.11999987	64.68703000
21.15999987	71.87719000
21.19999987	77.26676000
21.23999987	84.45692000
21.27999987	91.64098000
21.31999987	100.62560000
21.35999987	107.81580000
21.39999987	115.00600000
21.43999987	120.39550000
21.47999987	125.78510000
21.51999987	129.38020000
21.55999987	132.97520000
21.59999987	134.76970000
21.63999987	134.76970000
21.67999987	132.97520000
21.71999987	129.38020000
21.75999987	122.19000000
21.79999987	115.00600000
21.83999987	106.01520000
21.87999987	93.44157000
21.91999987	80.86184000
21.95999987	68.28211000
21.99999987	55.70238000
22.03999987	41.32816000
22.07999987	26.95395000
22.11999987	14.37422000
22.15999987	0.00000000
22.19999987	-8.98464900
22.23999986	-21.55827000
22.27999986	-30.54292000
22.31999986	-37.73308000
22.35999986	-46.71774000
22.39999986	-53.90789000
22.43999986	-59.29746000
22.47999986	-66.48762000
22.51999986	-71.87719000
22.55999986	-79.06125000
22.59999986	-84.45692000
22.63999986	-89.84650000
22.67999986	-97.03055000
22.71999986	-102.42620000
22.75999986	-109.61030000
22.79999986	-113.20540000
22.83999986	-118.59490000
22.87999986	-122.19000000
22.91999986	-123.99060000
22.95999986	-127.57960000
22.99999986	-127.57960000
23.03999986	-123.99060000
23.07999986	-122.19000000
23.11999986	-116.80040000
23.15999986	-109.61030000
23.19999986	-100.62560000
23.23999986	-89.84650000
23.27999986	-79.06125000
23.31999986	-64.68703000
23.35999986	-52.10730000
23.39999986	-39.52757000
23.43999986	-23.35887000
23.47999986	-10.77914000
23.51999986	1.79448800
23.55999986	14.37422000
23.59999986	25.15336000
23.63999986	35.93859000
23.67999986	44.92325000
23.71999986	53.90789000
23.75999986	61.09195000
23.79999986	70.07660000
23.83999986	75.47227000
23.87999985	82.65633000
23.91999985	89.84650000
23.95999985	97.03055000
23.99999985	106.01520000
24.03999985	113.20540000
24.07999985	120.39550000
24.11999985	125.78510000
24.15999985	129.38020000
24.19999985	134.76970000
24.23999985	131.17470000
24.27999985	131.17470000
24.31999985	134.76970000
24.35999985	132.97520000
24.39999985	123.99060000
24.43999985	115.00600000
24.47999985	106.01520000
24.51999985	93.44157000
24.55999985	82.65633000
24.59999985	70.07660000
24.63999985	57.50298000
24.67999985	43.12265000
24.71999985	28.74844000
24.75999985	17.96930000
24.79999985	5.38956800
24.83999985	-7.18405700
24.87999985	-16.16870000
24.91999985	-25.15336000
24.95999985	-35.93859000
24.99999985	-43.12265000
25.03999985	-50.31281000
25.07999985	-57.50298000
25.11999985	-64.68703000
25.15999985	-71.87719000
25.19999985	-77.26676000
25.23999985	-82.65633000
25.27999985	-89.84650000
25.31999985	-97.03055000
25.35999985	-102.42620000
25.39999985	-107.81580000
25.43999985	-113.20540000
25.47999985	-116.80040000
25.51999984	-122.19000000
25.55999984	-125.78510000
25.59999984	-127.57960000
25.63999984	-127.57960000
25.67999984	-125.78510000
25.71999984	-122.19000000
25.75999984	-118.59490000
25.79999984	-111.41090000
25.83999984	-100.62560000
25.87999984	-91.64098000
25.91999984	-80.86184000
25.95999984	-68.28211000
25.99999984	-55.70238000
26.03999984	-41.32816000
26.07999984	-26.95395000
26.11999984	-14.37422000
26.15999984	0.00000000
26.19999984	10.77914000
26.23999984	23.35887000
26.27999984	34.13800000
26.31999984	43.12265000
26.35999984	52.10730000
26.39999984	59.29746000
26.43999984	68.28211000
26.47999984	73.67168000
26.51999984	79.06125000
26.55999984	88.04590000
26.59999984	95.23605000
26.63999984	104.22070000
26.67999984	111.41090000
26.71999984	116.80040000
26.75999984	123.99060000
26.79999984	129.38020000
26.83999984	134.76970000
26.87999984	136.56420000
26.91999984	136.56420000
26.95999984	134.76970000
26.99999984	131.17470000
27.03999984	125.78510000
27.07999984	116.80040000
27.11999984	107.81580000
27.15999983	97.03055000
27.19999983	86.25141000
27.23999983	71.87719000
27.27999983	59.29746000
27.31999983	44.92325000
27.35999983	30.54292000
27.39999983	17.96930000
27.43999983	5.38956800
27.47999983	-5.38956800
27.51999983	-16.16870000
27.55999983	-25.15336000
27.59999983	-35.93859000
27.63999983	-43.12265000
27.67999983	-50.31281000
27.71999983	-57.50298000
27.75999983	-62.89254000
27.79999983	-70.07660000
27.83999983	-75.47227000
27.87999983	-80.86184000
27.91999983	-86.25141000
27.95999983	-93.44157000
27.99999983	-100.62560000
28.03999983	-106.01520000
28.07999983	-113.20540000
28.11999983	-116.80040000
28.15999983	-122.19000000
28.19999983	-125.78510000
28.23999983	-127.57960000
28.27999983	-129.38020000
28.31999983	-127.57960000
28.35999983	-123.99060000
28.39999983	-120.39550000
28.43999983	-113.20540000
28.47999983	-104.22070000
28.51999983	-93.44157000
28.55999983	-82.65633000
28.59999983	-70.07660000
28.63999983	-57.50298000
28.67999983	-43.12265000
28.71999983	-28.74844000
28.75999983	-16.16870000
28.79999982	-3.58897700
28.83999982	8.98464900
28.87999982	21.55827000
28.91999982	32.34352000
28.95999982	43.12265000
28.99999982	50.31281000
29.03999982	59.29746000
29.07999982	64.68703000
29.11999982	71.87719000
29.15999982	80.86184000
29.19999982	80.86184000
29.23999982	88.04590000
29.27999982	102.42620000
29.31999982	113.20540000
29.35999982	115.00600000
29.39999982	120.39550000
29.43999982	127.57960000
29.47999982	136.56420000
29.51999982	136.56420000
29.55999982	136.56420000
29.59999982	136.56420000
29.63999982	134.76970000
29.67999982	127.57960000
29.71999982	120.39550000
29.75999982	111.41090000
29.79999982	100.62560000
29.83999982	86.25141000
29.87999982	75.47227000
29.91999982	62.89254000
29.95999982	48.51222000
29.99999982	34.13800000
30.03999982	21.55827000
30.07999982	7.18405700
30.11999982	-3.58897700
30.15999982	-14.37422000
30.19999982	-23.35887000
30.23999982	-34.13800000
30.27999982	-41.32816000
30.31999982	-48.51222000
30.35999982	-55.70238000
30.39999982	-61.09195000
30.43999982	-66.48762000
30.47999981	-73.67168000
30.51999981	-79.06125000
30.55999981	-86.25141000
30.59999981	-91.64098000
30.63999981	-98.83114000
30.67999981	-104.22070000
30.71999981	-109.61030000
30.75999981	-115.00600000
30.79999981	-120.39550000
30.83999981	-123.99060000
30.87999981	-125.78510000
30.91999981	-129.38020000
30.95999981	-127.57960000
30.99999981	-125.78510000
31.03999981	-122.19000000
31.07999981	-115.00600000
31.11999981	-107.81580000
31.15999981	-97.03055000
31.19999981	-86.25141000
31.23999981	-73.67168000
31.27999981	-59.29746000
31.31999981	-44.92325000
31.35999981	-32.34352000
31.39999981	-17.96930000
31.43999981	-5.38956800
31.47999981	7.18405700
31.51999981	19.76379000
31.55999981	28.74844000
31.59999981	39.52757000
31.63999981	48.51222000
31.67999981	57.50298000
31.71999981	64.68703000
31.75999981	71.87719000
31.79999981	77.26676000
31.83999981	84.45692000
31.87999981	91.64098000
31.91999981	98.83114000
31.95999981	106.01520000
31.99999981	113.20540000
32.03999981	120.39550000
32.07999981	125.78510000
32.11999980	131.17470000
32.15999980	134.76970000
32.19999980	136.56420000
32.23999980	136.56420000
32.27999980	132.97520000
32.31999980	129.38020000
32.35999980	122.19000000
32.39999980	115.00600000
32.43999980	104.22070000
32.47999980	91.64098000
32.51999980	79.06125000
32.55999980	64.68703000
32.59999980	50.31281000
32.63999980	35.93859000
32.67999980	23.35887000
32.71999980	12.57363000
32.75999980	-1.79448800
32.79999980	-12.57363000
32.83999980	-21.55827000
32.87999980	-32.34352000
32.91999980	-39.52757000
32.95999980	-46.71774000
32.99999980	-55.70238000
33.03999980	-61.09195000
33.07999980	-66.48762000
33.11999980	-71.87719000
33.15999980	-77.26676000
33.19999980	-84.45692000
33.23999980	-89.84650000
33.27999980	-95.23605000
33.31999980	-102.42620000
33.35999980	-107.81580000
33.39999980	-113.20540000
33.43999980	-118.59490000
33.47999980	-122.19000000
33.51999980	-125.78510000
33.55999980	-127.57960000
33.59999980	-127.57960000
33.63999980	-125.78510000
33.67999980	-122.19000000
33.71999980	-116.80040000
33.75999979	-109.61030000
33.79999979	-100.62560000
33.83999979	-88.04590000
33.87999979	-77.26676000
33.91999979	-64.68703000
33.95999979	-50.31281000
33.99999979	-35.93859000
34.03999979	-21.55827000
34.07999979	-10.77914000
34.11999979	0.00000000
34.15999979	14.37422000
34.19999979	30.54292000
34.23999979	39.52757000
34.27999979	46.71774000
34.31999979	55.70238000
34.35999979	62.89254000
34.39999979	70.07660000
34.43999979	77.26676000
34.47999979	80.86184000
34.51999979	91.64098000
34.55999979	97.03055000
34.59999979	104.22070000
34.63999979	111.41090000
34.67999979	118.59490000
34.71999979	125.78510000
34.75999979	129.38020000
34.79999979	132.97520000
34.83999979	136.56420000
34.87999979	136.56420000
34.91999979	134.76970000
34.95999979	129.38020000
34.99999979	122.19000000
35.03999979	115.00600000
35.07999979	106.01520000
35.11999979	95.23605000
35.15999979	82.65633000
35.19999979	68.28211000
35.23999979	55.70238000
35.27999979	43.12265000
35.31999979	28.74844000
35.35999979	16.16870000
35.39999978	3.58897700
35.43999978	-7.18405700
35.47999978	-19.76379000
35.51999978	-28.74844000
35.55999978	-37.73308000
35.59999978	-44.92325000
35.63999978	-52.10730000
35.67999978	-59.29746000
35.71999978	-66.48762000
35.75999978	-71.87719000
35.79999978	-77.26676000
35.83999978	-84.45692000
35.87999978	-89.84650000
35.91999978	-95.23605000
35.95999978	-102.42620000
35.99999978	-107.81580000
36.03999978	-113.20540000
36.07999978	-116.80040000
36.11999978	-122.19000000
36.15999978	-123.99060000
36.19999978	-127.57960000
36.23999978	-125.78510000
36.27999978	-125.78510000
36.31999978	-122.19000000
36.35999978	-116.80040000
36.39999978	-111.41090000
36.43999978	-100.62560000
36.47999978	-91.64098000
36.51999978	-79.06125000
36.55999978	-66.48762000
36.59999978	-53.90789000
36.63999978	-41.32816000
36.67999978	-26.95395000
36.71999978	-12.57363000
36.75999978	0.00000000
36.79999978	12.57363000
36.83999978	25.15336000
36.87999978	34.13800000
36.91999978	44.92325000
36.95999978	53.90789000
36.99999978	61.09195000
37.03999977	68.28211000
37.07999977	75.47227000
37.11999977	80.86184000
37.15999977	89.84650000
37.19999977	97.03055000
37.23999977	104.22070000
37.27999977	111.41090000
37.31999977	116.80040000
37.35999977	123.99060000
37.39999977	129.38020000
37.43999977	134.76970000
37.47999977	136.56420000
37.51999977	136.56420000
37.55999977	134.76970000
37.59999977	131.17470000
37.63999977	125.78510000
37.67999977	118.59490000
37.71999977	107.81580000
37.75999977	97.03055000
37.79999977	84.45692000
37.83999977	71.87719000
37.87999977	57.50298000
37.91999977	44.92325000
37.95999977	30.54292000
37.99999977	17.96930000
38.03999977	5.38956800
38.07999977	-5.38956800
38.11999977	-16.16870000
38.15999977	-26.95395000
38.19999977	-35.93859000
38.23999977	-43.12265000
38.27999977	-50.31281000
38.31999977	-57.50298000
38.35999977	-62.89254000
38.39999977	-70.07660000
38.43999977	-75.47227000
38.47999977	-82.65633000
38.51999977	-88.04590000
38.55999977	-93.44157000
38.59999977	-100.62560000
38.63999977	-107.81580000
38.67999976	-111.41090000
38.71999976	-116.80040000
38.75999976	-122.19000000
38.79999976	-125.78510000
38.83999976	-127.57960000
38.87999976	-129.38020000
38.91999976	-127.57960000
38.95999976	-123.99060000
38.99999976	-116.80040000
39.03999976	-113.20540000
39.07999976	-111.41090000
39.11999976	-93.44157000
39.15999976	-75.47227000
39.19999976	-68.28211000
39.23999976	-57.50298000
39.27999976	-44.92325000
39.31999976	-25.15336000
39.35999976	-14.37422000
39.39999976	-1.79448800
39.43999976	10.77914000
39.47999976	23.35887000
39.51999976	34.13800000
39.55999976	43.12265000
39.59999976	52.10730000
39.63999976	59.29746000
39.67999976	64.68703000
39.71999976	71.87719000
39.75999976	79.06125000
39.79999976	86.25141000
39.83999976	93.44157000
39.87999976	100.62560000
39.91999976	109.61030000
39.95999976	115.00600000
39.99999976	122.19000000
40.03999976	129.38020000
40.07999976	134.76970000
40.11999976	136.56420000
40.15999976	136.56420000
40.19999976	134.76970000
40.23999976	132.97520000
40.27999976	129.38020000
40.31999975	120.39550000
40.35999975	111.41090000
40.39999975	100.62560000
40.43999975	88.04590000
40.47999975	75.47227000
40.51999975	61.09195000
40.55999975	46.71774000
40.59999975	34.13800000
40.63999975	19.76379000
40.67999975	7.18405700
40.71999975	-3.58897700
40.75999975	-16.16870000
40.79999975	-28.74844000
40.83999975	-46.71774000
40.87999975	-79.06125000
40.91999975	-82.65633000
40.95999975	-64.68703000
40.99999975	-57.50298000
41.03999975	-64.68703000
41.07999975	-62.89254000
41.11999975	-43.12265000
41.15999975	-34.13800000
41.19999975	-48.51222000
41.23999975	-77.26676000
41.27999975	-97.03055000
41.31999975	-109.61030000
41.35999975	-115.00600000
41.39999975	-129.38020000
41.43999975	-145.54890000
41.47999975	-149.14400000
41.51999975	-138.36480000
41.55999975	-127.57960000
41.59999975	-131.17470000
41.63999975	-132.97520000
41.67999975	-123.99060000
41.71999975	-111.41090000
41.75999975	-100.62560000
41.79999975	-91.64098000
41.83999975	-80.86184000
41.87999975	-66.48762000
41.91999975	-50.31281000
41.95999974	-32.34352000
41.99999974	-16.16870000
42.03999974	-1.79448800
42.07999974	14.37422000
42.11999974	32.34352000
42.15999974	48.51222000
42.19999974	57.50298000
42.23999974	61.09195000
42.27999974	64.68703000
42.31999974	68.28211000
42.35999974	71.87719000
42.39999974	73.67168000
42.43999974	73.67168000
42.47999974	80.86184000
42.51999974	91.64098000
42.55999974	102.42620000
42.59999974	111.41090000
42.63999974	120.39550000
42.67999974	127.57960000
42.71999974	132.97520000
42.75999974	136.56420000
42.79999974	136.56420000
42.83999974	132.97520000
42.87999974	129.38020000
42.91999974	127.57960000
42.95999974	123.99060000
42.99999974	116.80040000
43.03999974	107.81580000
43.07999974	98.83114000
43.11999974	88.04590000
43.15999974	71.87719000
43.19999974	57.50298000
43.23999974	41.32816000
43.27999974	25.15336000
43.31999974	8.98464900
43.35999974	-3.58897700
43.39999974	-16.16870000
43.43999974	-26.95395000
43.47999974	-35.93859000
43.51999974	-44.92325000
43.55999974	-52.10730000
43.59999974	-57.50298000
43.63999973	-64.68703000
43.67999973	-70.07660000
43.71999973	-75.47227000
43.75999973	-79.06125000
43.79999973	-86.25141000
43.83999973	-91.64098000
43.87999973	-97.03055000
43.91999973	-102.42620000
43.95999973	-107.81580000
43.99999973	-113.20540000
44.03999973	-116.80040000
44.07999973	-120.39550000
44.11999973	-122.19000000
44.15999973	-123.99060000
44.19999973	-123.99060000
44.23999973	-122.19000000
44.27999973	-120.39550000
44.31999973	-115.00600000
44.35999973	-109.61030000
44.39999973	-102.42620000
44.43999973	-91.64098000
44.47999973	-79.06125000
44.51999973	-64.68703000
44.55999973	-50.31281000
44.59999973	-35.93859000
44.63999973	-21.55827000
44.67999973	-7.18405700
44.71999973	7.18405700
44.75999973	17.96930000
44.79999973	28.74844000
44.83999973	39.52757000
44.87999973	48.51222000
44.91999973	57.50298000
44.95999973	64.68703000
44.99999973	73.67168000
45.03999973	79.06125000
45.07999973	86.25141000
45.11999973	93.44157000
45.15999973	100.62560000
45.19999973	109.61030000
45.23999973	115.00600000
45.27999972	120.39550000
45.31999972	125.78510000
45.35999972	129.38020000
45.39999972	132.97520000
45.43999972	134.76970000
45.47999972	134.76970000
45.51999972	131.17470000
45.55999972	127.57960000
45.59999972	122.19000000
45.63999972	113.20540000
45.67999972	106.01520000
45.71999972	93.44157000
45.75999972	80.86184000
45.79999972	68.28211000
45.83999972	55.70238000
45.87999972	41.32816000
45.91999972	28.74844000
45.95999972	14.37422000
45.99999972	1.79448800
46.03999972	-7.18405700
46.07999972	-19.76379000
46.11999972	-28.74844000
46.15999972	-35.93859000
46.19999972	-46.71774000
46.23999972	-53.90789000
46.27999972	-61.09195000
46.31999972	-66.48762000
46.35999972	-73.67168000
46.39999972	-80.86184000
46.43999972	-86.25141000
46.47999972	-93.44157000
46.51999972	-98.83114000
46.55999972	-104.22070000
46.59999972	-109.61030000
46.63999972	-115.00600000
46.67999972	-118.59490000
46.71999972	-122.19000000
46.75999972	-125.78510000
46.79999972	-125.78510000
46.83999972	-125.78510000
46.87999972	-123.99060000
46.91999971	-122.19000000
46.95999971	-115.00600000
46.99999971	-107.81580000
47.03999971	-98.83114000
47.07999971	-88.04590000
47.11999971	-77.26676000
47.15999971	-64.68703000
47.19999971	-52.10730000
47.23999971	-37.73308000
47.27999971	-25.15336000
47.31999971	-10.77914000
47.35999971	0.00000000
47.39999971	12.57363000
47.43999971	23.35887000
47.47999971	34.13800000
47.51999971	46.71774000
47.55999971	53.90789000
47.59999971	62.89254000
47.63999971	70.07660000
47.67999971	75.47227000
47.71999971	84.45692000
47.75999971	91.64098000
47.79999971	98.83114000
47.83999971	106.01520000
47.87999971	113.20540000
47.91999971	120.39550000
47.95999971	125.78510000
47.99999971	131.17470000
48.03999971	134.76970000
48.07999971	136.56420000
48.11999971	136.56420000
48.15999971	134.76970000
48.19999971	129.38020000
48.23999971	123.99060000
48.27999971	115.00600000
48.31999971	106.01520000
48.35999971	93.44157000
48.39999971	80.86184000
48.43999971	68.28211000
48.47999971	55.70238000
48.51999971	43.12265000
48.55999970	28.74844000
48.59999970	16.16870000
48.63999970	3.58897700
48.67999970	-5.38956800
48.71999970	-16.16870000
48.75999970	-26.95395000
48.79999970	-34.13800000
48.83999970	-44.92325000
48.87999970	-55.70238000
48.91999970	-57.50298000
48.95999970	-62.89254000
48.99999970	-71.87719000
49.03999970	-77.26676000
49.07999970	-82.65633000
49.11999970	-89.84650000
49.15999970	-95.23605000
49.19999970	-102.42620000
49.23999970	-107.81580000
49.27999970	-113.20540000
49.31999970	-118.59490000
49.35999970	-123.99060000
49.39999970	-125.78510000
49.43999970	-127.57960000
49.47999970	-129.38020000
49.51999970	-125.78510000
49.55999970	-122.19000000
49.59999970	-116.80040000
49.63999970	-111.41090000
49.67999970	-100.62560000
49.71999970	-91.64098000
49.75999970	-79.06125000
49.79999970	-66.48762000
49.83999970	-53.90789000
49.87999970	-41.32816000
49.91999970	-26.95395000
49.95999970	-14.37422000
49.99999970	0.00000000
50.03999970	12.57363000
50.07999970	23.35887000
50.11999970	34.13800000
50.15999970	44.92325000
50.19999969	53.90789000
50.23999969	61.09195000
50.27999969	68.28211000
50.31999969	73.67168000
50.35999969	79.06125000
50.39999969	88.04590000
50.43999969	95.23605000
50.47999969	102.42620000
50.51999969	109.61030000
50.55999969	116.80040000
50.59999969	123.99060000
50.63999969	129.38020000
50.67999969	132.97520000
50.71999969	136.56420000
50.75999969	136.56420000
50.79999969	136.56420000
50.83999969	132.97520000
50.87999969	127.57960000
50.91999969	118.59490000
50.95999969	109.61030000
50.99999969	98.83114000
51.03999969	86.25141000
51.07999969	73.67168000
51.11999969	59.29746000
51.15999969	46.71774000
51.19999969	32.34352000
51.23999969	19.76379000
51.27999969	7.18405700
51.31999969	-5.38956800
51.35999969	-14.37422000
51.39999969	-25.15336000
51.43999969	-35.93859000
51.47999969	-43.12265000
51.51999969	-50.31281000
51.55999969	-57.50298000
51.59999969	-62.89254000
51.63999969	-70.07660000
51.67999969	-73.67168000
51.71999969	-80.86184000
51.75999969	-86.25141000
51.79999969	-93.44157000
51.83999968	-98.83114000
51.87999968	-106.01520000
51.91999968	-111.41090000
51.95999968	-116.80040000
51.99999968	-120.39550000
52.03999968	-123.99060000
52.07999968	-127.57960000
52.11999968	-127.57960000
52.15999968	-127.57960000
52.19999968	-123.99060000
52.23999968	-120.39550000
52.27999968	-113.20540000
52.31999968	-104.22070000
52.35999968	-93.44157000
52.39999968	-84.45692000
52.43999968	-71.87719000
52.47999968	-57.50298000
52.51999968	-43.12265000
52.55999968	-30.54292000
52.59999968	-16.16870000
52.63999968	-3.58897700
52.67999968	8.98464900
52.71999968	21.55827000
52.75999968	32.34352000
52.79999968	43.12265000
52.83999968	50.31281000
52.87999968	53.90789000
52.91999968	43.12265000
52.95999968	32.34352000
52.99999968	48.51222000
53.03999968	77.26676000
53.07999968	91.64098000
53.11999968	107.81580000
53.15999968	129.38020000
53.19999968	161.72370000
53.23999968	179.69300000
53.27999968	174.30340000
53.31999968	156.33410000
53.35999968	143.75440000
53.39999968	140.15930000
53.43999968	132.97520000
53.47999967	118.59490000
53.51999967	104.22070000
53.55999967	98.83114000
53.59999967	102.42620000
53.63999967	98.83114000
53.67999967	80.86184000
53.71999967	62.89254000
53.75999967	53.90789000
53.79999967	39.52757000
53.83999967	26.95395000
53.87999967	17.96930000
53.91999967	3.58897700
53.95999967	-10.77914000
53.99999967	-19.76379000
54.03999967	-25.15336000
54.07999967	-30.54292000
54.11999967	-35.93859000
54.15999967	-37.73308000
54.19999967	-39.52757000
54.23999967	-41.32816000
54.27999967	-50.31281000
54.31999967	-61.09195000
54.35999967	-71.87719000
54.39999967	-80.86184000
54.43999967	-93.44157000
54.47999967	-104.22070000
54.51999967	-115.00600000
54.55999967	-122.19000000
54.59999967	-123.99060000
54.63999967	-125.78510000
54.67999967	-125.78510000
54.71999967	-129.38020000
54.75999967	-127.57960000
54.79999967	-125.78510000
54.83999967	-125.78510000
54.87999967	-122.19000000
54.91999967	-120.39550000
54.95999967	-111.41090000
54.99999967	-98.83114000
55.03999967	-82.65633000
55.07999967	-70.07660000
55.11999967	-53.90789000
55.15999966	-37.73308000
55.19999966	-23.35887000
55.23999966	-8.98464900
55.27999966	0.00000000
55.31999966	10.77914000
55.35999966	19.76379000
55.39999966	26.95395000
55.43999966	35.93859000
55.47999966	44.92325000
55.51999966	52.10730000
55.55999966	59.29746000
55.59999966	66.48762000
55.63999966	73.67168000
55.67999966	80.86184000
55.71999966	88.04590000
55.75999966	97.03055000
55.79999966	106.01520000
55.83999966	111.41090000
55.87999966	120.39550000
55.91999966	127.57960000
55.95999966	132.97520000
55.99999966	136.56420000
56.03999966	136.56420000
56.07999966	138.36480000
56.11999966	134.76970000
56.15999966	132.97520000
56.19999966	127.57960000
56.23999966	118.59490000
56.27999966	107.81580000
56.31999966	95.23605000
56.35999966	80.86184000
56.39999966	66.48762000
56.43999966	50.31281000
56.47999966	34.13800000
56.51999966	23.35887000
56.55999966	7.18405700
56.59999966	-3.58897700
56.63999966	-12.57363000
56.67999966	-23.35887000
56.71999966	-28.74844000
56.75999966	-39.52757000
56.79999965	-46.71774000
56.83999965	-52.10730000
56.87999965	-59.29746000
56.91999965	-64.68703000
56.95999965	-71.87719000
56.99999965	-75.47227000
57.03999965	-82.65633000
57.07999965	-88.04590000
57.11999965	-93.44157000
57.15999965	-98.83114000
57.19999965	-106.01520000
57.23999965	-111.41090000
57.27999965	-118.59490000
57.31999965	-122.19000000
57.35999965	-125.78510000
57.39999965	-127.57960000
57.43999965	-129.38020000
57.47999965	-127.57960000
57.51999965	-123.99060000
57.55999965	-118.59490000
57.59999965	-111.41090000
57.63999965	-100.62560000
57.67999965	-89.84650000
57.71999965	-79.06125000
57.75999965	-64.68703000
57.79999965	-50.31281000
57.83999965	-35.93859000
57.87999965	-21.55827000
57.91999965	-8.98464900
57.95999965	5.38956800
57.99999965	16.16870000
58.03999965	28.74844000
58.07999965	39.52757000
58.11999965	48.51222000
58.15999965	57.50298000
58.19999965	62.89254000
58.23999965	71.87719000
58.27999965	77.26676000
58.31999965	82.65633000
58.35999965	89.84650000
58.39999965	97.03055000
58.43999964	102.42620000
58.47999964	109.61030000
58.51999964	116.80040000
58.55999964	122.19000000
58.59999964	129.38020000
58.63999964	132.97520000
58.67999964	131.17470000
58.71999964	131.17470000
58.75999964	134.76970000
58.79999964	132.97520000
58.83999964	123.99060000
58.87999964	116.80040000
58.91999964	107.81580000
58.95999964	97.03055000
58.99999964	84.45692000
59.03999964	71.87719000
59.07999964	57.50298000
59.11999964	44.92325000
59.15999964	28.74844000
59.19999964	16.16870000
59.23999964	5.38956800
59.27999964	-7.18405700
59.31999964	-19.76379000
59.35999964	-28.74844000
59.39999964	-37.73308000
59.43999964	-44.92325000
59.47999964	-53.90789000
59.51999964	-61.09195000
59.55999964	-66.48762000
59.59999964	-71.87719000
59.63999964	-79.06125000
59.67999964	-82.65633000
59.71999964	-89.84650000
59.75999964	-93.44157000
59.79999964	-100.62560000
59.83999964	-106.01520000
59.87999964	-109.61030000
59.91999964	-115.00600000
59.95999964	-118.59490000
59.99999964	-122.19000000
60.03999964	-123.99060000
60.07999963	-125.78510000
60.11999963	-123.99060000
60.15999963	-120.39550000
60.19999963	-116.80040000
60.23999963	-111.41090000
60.27999963	-102.42620000
60.31999963	-93.44157000
60.35999963	-80.86184000
60.39999963	-68.28211000
60.43999963	-57.50298000
60.47999963	-43.12265000
60.51999963	-28.74844000
60.55999963	-14.37422000
60.59999963	0.00000000
60.63999963	12.57363000
60.67999963	25.15336000
60.71999963	35.93859000
60.75999963	46.71774000
60.79999963	53.90789000
60.83999963	62.89254000
60.87999963	70.07660000
60.91999963	77.26676000
60.95999963	82.65633000
60.99999963	89.84650000
61.03999963	97.03055000
61.07999963	104.22070000
61.11999963	111.41090000
61.15999963	116.80040000
61.19999963	123.99060000
61.23999963	129.38020000
61.27999963	132.97520000
61.31999963	134.76970000
61.35999963	134.76970000
61.39999963	132.97520000
61.43999963	131.17470000
61.47999963	123.99060000
61.51999963	116.80040000
61.55999963	107.81580000
61.59999963	97.03055000
61.63999963	86.25141000
61.67999963	71.87719000
61.71999962	59.29746000
61.75999962	46.71774000
61.79999962	32.34352000
61.83999962	19.76379000
61.87999962	7.18405700
61.91999962	-3.58897700
61.95999962	-14.37422000
61.99999962	-25.15336000
62.03999962	-34.13800000
62.07999962	-43.12265000
62.11999962	-50.31281000
62.15999962	-57.50298000
62.19999962	-64.68703000
62.23999962	-70.07660000
62.27999962	-77.26676000
62.31999962	-82.65633000
62.35999962	-88.04590000
62.39999962	-95.23605000
62.43999962	-100.62560000
62.47999962	-107.81580000
62.51999962	-111.41090000
62.55999962	-116.80040000
62.59999962	-120.39550000
62.63999962	-123.99060000
62.67999962	-125.78510000
62.71999962	-125.78510000
62.75999962	-125.78510000
62.79999962	-122.19000000
62.83999962	-116.80040000
62.87999962	-111.41090000
62.91999962	-102.42620000
62.95999962	-93.44157000
62.99999962	-80.86184000
63.03999962	-68.28211000
63.07999962	-57.50298000
63.11999962	-43.12265000
63.15999962	-28.74844000
63.19999962	-16.16870000
63.23999962	-1.79448800
63.27999962	10.77914000
63.31999962	21.55827000
63.35999961	32.34352000
63.39999961	43.12265000
63.43999961	50.31281000
63.47999961	57.50298000
63.51999961	68.28211000
63.55999961	73.67168000
63.59999961	82.65633000
63.63999961	80.86184000
63.67999961	93.44157000
63.71999961	106.01520000
63.75999961	115.00600000
63.79999961	115.00600000
63.83999961	120.39550000
63.87999961	127.57960000
63.91999961	134.76970000
63.95999961	136.56420000
63.99999961	136.56420000
64.03999961	136.56420000
64.07999961	132.97520000
64.11999961	125.78510000
64.15999961	118.59490000
64.19999961	109.61030000
64.23999961	98.83114000
64.27999961	86.25141000
64.31999961	73.67168000
64.35999961	62.89254000
64.39999961	48.51222000
64.43999961	34.13800000
64.47999961	21.55827000
64.51999961	8.98464900
64.55999961	-3.58897700
64.59999961	-14.37422000
64.63999961	-23.35887000
64.67999961	-34.13800000
64.71999961	-41.32816000
64.75999961	-48.51222000
64.79999961	-55.70238000
64.83999961	-61.09195000
64.87999961	-66.48762000
64.91999961	-73.67168000
64.95999961	-79.06125000
64.99999960	-86.25141000
65.03999960	-91.64098000
65.07999960	-98.83114000
65.11999960	-104.22070000
65.15999960	-109.61030000
65.19999960	-115.00600000
65.23999960	-120.39550000
65.27999960	-123.99060000
65.31999960	-127.57960000
65.35999960	-127.57960000
65.39999960	-127.57960000
65.43999960	-123.99060000
65.47999960	-118.59490000
65.51999960	-113.20540000
65.55999960	-104.22070000
65.59999960	-95.23605000
65.63999960	-84.45692000
65.67999960	-71.87719000
65.71999960	-57.50298000
65.75999960	-44.92325000
65.79999960	-32.34352000
65.83999960	-17.96930000
65.87999960	-5.38956800
65.91999960	7.18405700
65.95999960	19.76379000
65.99999960	30.54292000
66.03999960	41.32816000
66.07999960	50.31281000
66.11999960	57.50298000
66.15999960	64.68703000
66.19999960	71.87719000
66.23999960	77.26676000
66.27999960	84.45692000
66.31999960	93.44157000
66.35999960	98.83114000
66.39999960	106.01520000
66.43999960	115.00600000
66.47999960	122.19000000
66.51999960	127.57960000
66.55999960	132.97520000
66.59999960	136.56420000
66.63999959	136.56420000
66.67999959	136.56420000
66.71999959	134.76970000
66.75999959	129.38020000
66.79999959	122.19000000
66.83999959	113.20540000
66.87999959	102.42620000
66.91999959	89.84650000
66.95999959	77.26676000
66.99999959	64.68703000
67.03999959	50.31281000
67.07999959	35.93859000
67.11999959	23.35887000
67.15999959	10.77914000
67.19999959	-1.79448800
67.23999959	-10.77914000
67.27999959	-21.55827000
67.31999959	-30.54292000
67.35999959	-39.52757000
67.39999959	-46.71774000
67.43999959	-53.90789000
67.47999959	-61.09195000
67.51999959	-66.48762000
67.55999959	-71.87719000
67.59999959	-79.06125000
67.63999959	-84.45692000
67.67999959	-89.84650000
67.71999959	-97.03055000
67.75999959	-102.42620000
67.79999959	-107.81580000
67.83999959	-115.00600000
67.87999959	-118.59490000
67.91999959	-122.19000000
67.95999959	-125.78510000
67.99999959	-127.57960000
68.03999959	-127.57960000
68.07999959	-125.78510000
68.11999959	-120.39550000
68.15999959	-115.00600000
68.19999959	-107.81580000
68.23999959	-98.83114000
68.27999959	-86.25141000
68.31999958	-73.67168000
68.35999958	-61.09195000
68.39999958	-46.71774000
68.43999958	-34.13800000
68.47999958	-21.55827000
68.51999958	-8.98464900
68.55999958	0.00000000
68.59999958	17.96930000
68.63999958	32.34352000
68.67999958	39.52757000
68.71999958	48.51222000
68.75999958	55.70238000
68.79999958	62.89254000
68.83999958	70.07660000
68.87999958	77.26676000
68.91999958	84.45692000
68.95999958	89.84650000
68.99999958	98.83114000
69.03999958	106.01520000
69.07999958	113.20540000
69.11999958	118.59490000
69.15999958	125.78510000
69.19999958	129.38020000
69.23999958	134.76970000
69.27999958	136.56420000
69.31999958	136.56420000
69.35999958	134.76970000
69.39999958	129.38020000
69.43999958	122.19000000
69.47999958	115.00600000
69.51999958	104.22070000
69.55999958	93.44157000
69.59999958	80.86184000
69.63999958	68.28211000
69.67999958	55.70238000
69.71999958	41.32816000
69.75999958	28.74844000
69.79999958	14.37422000
69.83999958	1.79448800
69.87999958	-7.18405700
69.91999958	-19.76379000
69.95999957	-30.54292000
69.99999957	-37.73308000
70.03999957	-44.92325000
70.07999957	-52.10730000
70.11999957	-57.50298000
70.15999957	-66.48762000
70.19999957	-71.87719000
70.23999957	-77.26676000
70.27999957	-84.45692000
70.31999957	-89.84650000
70.35999957	-95.23605000
70.39999957	-102.42620000
70.43999957	-107.81580000
70.47999957	-113.20540000
70.51999957	-118.59490000
70.55999957	-122.19000000
70.59999957	-123.99060000
70.63999957	-125.78510000
70.67999957	-125.78510000
70.71999957	-125.78510000
70.75999957	-122.19000000
70.79999957	-116.80040000
70.83999957	-109.61030000
70.87999957	-100.62560000
70.91999957	-89.84650000
70.95999957	-79.06125000
70.99999957	-66.48762000
71.03999957	-52.10730000
71.07999957	-37.73308000
71.11999957	-25.15336000
71.15999957	-12.57363000
71.19999957	1.79448800
71.23999957	14.37422000
71.27999957	26.95395000
71.31999957	35.93859000
71.35999957	43.12265000
71.39999957	53.90789000
71.43999957	61.09195000
71.47999957	68.28211000
71.51999957	75.47227000
71.55999957	80.86184000
71.59999956	89.84650000
71.63999956	97.03055000
71.67999956	102.42620000
71.71999956	113.20540000
71.75999956	118.59490000
71.79999956	123.99060000
71.83999956	129.38020000
71.87999956	132.97520000
71.91999956	136.56420000
71.95999956	134.76970000
71.99999956	134.76970000
72.03999956	131.17470000
72.07999956	125.78510000
72.11999956	115.00600000
72.15999956	106.01520000
72.19999956	95.23605000
72.23999956	82.65633000
72.27999956	70.07660000
72.31999956	57.50298000
72.35999956	43.12265000
72.39999956	28.74844000
72.43999956	16.16870000
72.47999956	3.58897700
72.51999956	-7.18405700
72.55999956	-16.16870000
72.59999956	-26.95395000
72.63999956	-35.93859000
72.67999956	-43.12265000
72.71999956	-50.31281000
72.75999956	-57.50298000
72.79999956	-64.68703000
72.83999956	-68.28211000
72.87999956	-75.47227000
72.91999956	-80.86184000
72.95999956	-88.04590000
72.99999956	-93.44157000
73.03999956	-100.62560000
73.07999956	-107.81580000
73.11999956	-113.20540000
73.15999956	-118.59490000
73.19999956	-122.19000000
73.23999955	-123.99060000
73.27999955	-127.57960000
73.31999955	-127.57960000
73.35999955	-125.78510000
73.39999955	-122.19000000
73.43999955	-116.80040000
73.47999955	-113.20540000
73.51999955	-109.61030000
73.55999955	-91.64098000
73.59999955	-73.67168000
73.63999955	-66.48762000
73.67999955	-55.70238000
73.71999955	-43.12265000
73.75999955	-25.15336000
73.79999955	-12.57363000
73.83999955	-1.79448800
73.87999955	12.57363000
73.91999955	23.35887000
73.95999955	34.13800000
73.99999955	43.12265000
74.03999955	52.10730000
74.07999955	61.09195000
74.11999955	64.68703000
74.15999955	71.87719000
74.19999955	80.86184000
74.23999955	88.04590000
74.27999955	93.44157000
74.31999955	100.62560000
74.35999955	109.61030000
74.39999955	116.80040000
74.43999955	123.99060000
74.47999955	129.38020000
74.51999955	134.76970000
74.55999955	136.56420000
74.59999955	136.56420000
74.63999955	136.56420000
74.67999955	132.97520000
74.71999955	127.57960000
74.75999955	120.39550000
74.79999955	111.41090000
74.83999955	98.83114000
74.87999954	86.25141000
74.91999954	73.67168000
74.95999954	61.09195000
74.99999954	46.71774000
75.03999954	32.34352000
75.07999954	19.76379000
75.11999954	7.18405700
75.15999954	-5.38956800
75.19999954	-16.16870000
75.23999954	-25.15336000
75.27999954	-34.13800000
75.31999954	-43.12265000
75.35999954	-50.31281000
75.39999954	-57.50298000
75.43999954	-62.89254000
75.47999954	-68.28211000
75.51999954	-73.67168000
75.55999954	-80.86184000
75.59999954	-86.25141000
75.63999954	-91.64098000
75.67999954	-98.83114000
75.71999954	-104.22070000
75.75999954	-111.41090000
75.79999954	-115.00600000
75.83999954	-120.39550000
75.87999954	-123.99060000
75.91999954	-127.57960000
75.95999954	-129.38020000
75.99999954	-127.57960000
76.03999954	-123.99060000
76.07999954	-120.39550000
76.11999954	-115.00600000
76.15999954	-104.22070000
76.19999954	-95.23605000
76.23999954	-84.45692000
76.27999954	-71.87719000
76.31999954	-57.50298000
76.35999954	-43.12265000
76.39999954	-30.54292000
76.43999954	-16.16870000
76.47999954	-3.58897700
76.51999953	8.98464900
76.55999953	21.55827000
76.59999953	32.34352000
76.63999953	41.32816000
76.67999953	50.31281000
76.71999953	57.50298000
76.75999953	66.48762000
76.79999953	71.87719000
76.83999953	79.06125000
76.87999953	84.45692000
76.91999953	91.64098000
76.95999953	98.83114000
76.99999953	107.81580000
77.03999953	115.00600000
77.07999953	120.39550000
77.11999953	125.78510000
77.15999953	132.97520000
77.19999953	134.76970000
77.23999953	136.56420000
77.27999953	136.56420000
77.31999953	132.97520000
77.35999953	129.38020000
77.39999953	122.19000000
77.43999953	113.20540000
77.47999953	102.42620000
77.51999953	89.84650000
77.55999953	77.26676000
77.59999953	62.89254000
77.63999953	48.51222000
77.67999953	35.93859000
77.71999953	21.55827000
77.75999953	10.77914000
77.79999953	-1.79448800
77.83999953	-14.37422000
77.87999953	-23.35887000
77.91999953	-32.34352000
77.95999953	-41.32816000
77.99999953	-48.51222000
78.03999953	-55.70238000
78.07999953	-61.09195000
78.11999953	-68.28211000
78.15999952	-73.67168000
78.19999952	-79.06125000
78.23999952	-86.25141000
78.27999952	-91.64098000
78.31999952	-97.03055000
78.35999952	-102.42620000
78.39999952	-109.61030000
78.43999952	-115.00600000
78.47999952	-118.59490000
78.51999952	-123.99060000
78.55999952	-125.78510000
78.59999952	-127.57960000
78.63999952	-127.57960000
78.67999952	-125.78510000
78.71999952	-120.39550000
78.75999952	-115.00600000
78.79999952	-107.81580000
78.83999952	-97.03055000
78.87999952	-86.25141000
78.91999952	-73.67168000
78.95999952	-61.09195000
78.99999952	-46.71774000
79.03999952	-34.13800000
79.07999952	-19.76379000
79.11999952	-7.18405700
79.15999952	5.38956800
79.19999952	17.96930000
79.23999952	28.74844000
79.27999952	39.52757000
79.31999952	48.51222000
79.35999952	57.50298000
79.39999952	64.68703000
79.43999952	71.87719000
79.47999952	77.26676000
79.51999952	84.45692000
79.55999952	91.64098000
79.59999952	98.83114000
79.63999952	106.01520000
79.67999952	113.20540000
79.71999952	122.19000000
79.75999952	127.57960000
79.79999952	129.38020000
79.83999951	134.76970000
79.87999951	136.56420000
79.91999951	136.56420000
79.95999951	134.76970000
79.99999951	129.38020000
80.03999951	122.19000000
80.07999951	113.20540000
80.11999951	104.22070000
80.15999951	91.64098000
80.19999951	80.86184000
80.23999951	66.48762000
80.27999951	53.90789000
80.31999951	39.52757000
80.35999951	26.95395000
80.39999951	12.57363000
80.43999951	0.00000000
80.47999951	-10.77914000
80.51999951	-21.55827000
80.55999951	-30.54292000
80.59999951	-39.52757000
80.63999951	-46.71774000
80.67999951	-53.90789000
80.71999951	-59.29746000
80.75999951	-66.48762000
80.79999951	-71.87719000
80.83999951	-79.06125000
80.87999951	-84.45692000
80.91999951	-89.84650000
80.95999951	-97.03055000
80.99999951	-102.42620000
81.03999951	-109.61030000
81.07999951	-115.00600000
81.11999951	-118.59490000
81.15999951	-122.19000000
81.19999951	-125.78510000
81.23999951	-127.57960000
81.27999951	-127.57960000
81.31999951	-125.78510000
81.35999951	-122.19000000
81.39999951	-115.00600000
81.43999951	-109.61030000
81.47999950	-98.83114000
81.51999950	-89.84650000
81.55999950	-77.26676000
81.59999950	-64.68703000
81.63999950	-52.10730000
81.67999950	-37.73308000
81.71999950	-23.35887000
81.75999950	-8.98464900
81.79999950	1.79448800
81.83999950	14.37422000
81.87999950	26.95395000
81.91999950	34.13800000
81.95999950	35.93859000
81.99999950	35.93859000
82.03999950	37.73308000
82.07999950	46.71774000
82.11999950	59.29746000
82.15999950	79.06125000
82.19999950	98.83114000
82.23999950	118.59490000
82.27999950	140.15930000
82.31999950	154.53350000
82.35999950	158.12860000
82.39999950	154.53350000
82.43999950	145.54890000
82.47999950	138.36480000
82.51999950	132.97520000
82.55999950	123.99060000
82.59999950	116.80040000
82.63999950	113.20540000
82.67999950	111.41090000
82.71999950	106.01520000
82.75999950	97.03055000
82.79999950	86.25141000
82.83999950	71.87719000
82.87999950	61.09195000
82.91999950	48.51222000
82.95999950	35.93859000
82.99999950	21.55827000
83.03999950	8.98464900
83.07999950	-1.79448800
83.11999949	-8.98464900
83.15999949	-16.16870000
83.19999949	-23.35887000
83.23999949	-28.74844000
83.27999949	-32.34352000
83.31999949	-43.12265000
83.35999949	-44.92325000
83.39999949	-50.31281000
83.43999949	-62.89254000
83.47999949	-73.67168000
83.51999949	-84.45692000
83.55999949	-95.23605000
83.59999949	-102.42620000
83.63999949	-111.41090000
83.67999949	-115.00600000
83.71999949	-118.59490000
83.75999949	-120.39550000
83.79999949	-123.99060000
83.83999949	-125.78510000
83.87999949	-127.57960000
83.91999949	-129.38020000
83.95999949	-127.57960000
83.99999949	-125.78510000
84.03999949	-120.39550000
84.07999949	-113.20540000
84.11999949	-100.62560000
84.15999949	-88.04590000
84.19999949	-73.67168000
84.23999949	-59.29746000
84.27999949	-44.92325000
84.31999949	-32.34352000
84.35999949	-21.55827000
84.39999949	-8.98464900
84.43999949	0.00000000
84.47999949	12.57363000
84.51999949	21.55827000
84.55999949	32.34352000
84.59999949	41.32816000
84.63999949	50.31281000
84.67999949	57.50298000
84.71999949	64.68703000
84.75999948	70.07660000
84.79999948	77.26676000
84.83999948	86.25141000
84.87999948	93.44157000
84.91999948	100.62560000
84.95999948	109.61030000
84.99999948	115.00600000
85.03999948	122.19000000
85.07999948	127.57960000
85.11999948	132.97520000
85.15999948	136.56420000
85.19999948	136.56420000
85.23999948	136.56420000
85.27999948	134.76970000
85.31999948	129.38020000
85.35999948	122.19000000
85.39999948	111.41090000
85.43999948	98.83114000
85.47999948	86.25141000
85.51999948	71.87719000
85.55999948	57.50298000
85.59999948	41.32816000
85.63999948	28.74844000
85.67999948	16.16870000
85.71999948	5.38956800
85.75999948	-7.18405700
85.79999948	-16.16870000
85.83999948	-26.95395000
85.87999948	-35.93859000
85.91999948	-43.12265000
85.95999948	-50.31281000
85.99999948	-57.50298000
86.03999948	-62.89254000
86.07999948	-68.28211000
86.11999948	-73.67168000
86.15999948	-79.06125000
86.19999948	-86.25141000
86.23999948	-91.64098000
86.27999948	-97.03055000
86.31999948	-102.42620000
86.35999948	-109.61030000
86.39999947	-115.00600000
86.43999947	-120.39550000
86.47999947	-123.99060000
86.51999947	-127.57960000
86.55999947	-129.38020000
86.59999947	-129.38020000
86.63999947	-125.78510000
86.67999947	-122.19000000
86.71999947	-115.00600000
86.75999947	-106.01520000
86.79999947	-95.23605000
86.83999947	-84.45692000
86.87999947	-71.87719000
86.91999947	-57.50298000
86.95999947	-43.12265000
86.99999947	-28.74844000
87.03999947	-14.37422000
87.07999947	-1.79448800
87.11999947	10.77914000
87.15999947	21.55827000
87.19999947	32.34352000
87.23999947	43.12265000
87.27999947	52.10730000
87.31999947	59.29746000
87.35999947	68.28211000
87.39999947	73.67168000
87.43999947	79.06125000
87.47999947	86.25141000
87.51999947	91.64098000
87.55999947	98.83114000
87.59999947	106.01520000
87.63999947	113.20540000
87.67999947	120.39550000
87.71999947	125.78510000
87.75999947	129.38020000
87.79999947	134.76970000
87.83999947	136.56420000
87.87999947	134.76970000
87.91999947	132.97520000
87.95999947	127.57960000
87.99999947	120.39550000
88.03999946	111.41090000
88.07999946	100.62560000
88.11999946	89.84650000
88.15999946	77.26676000
88.19999946	64.68703000
88.23999946	50.31281000
88.27999946	30.54292000
88.31999946	23.35887000
88.35999946	14.37422000
88.39999946	0.00000000
88.43999946	-14.37422000
88.47999946	-26.95395000
88.51999946	-32.34352000
88.55999946	-41.32816000
88.59999946	-50.31281000
88.63999946	-57.50298000
88.67999946	-62.89254000
88.71999946	-68.28211000
88.75999946	-75.47227000
88.79999946	-79.06125000
88.83999946	-86.25141000
88.87999946	-93.44157000
88.91999946	-97.03055000
88.95999946	-104.22070000
88.99999946	-107.81580000
89.03999946	-115.00600000
89.07999946	-120.39550000
89.11999946	-122.19000000
89.15999946	-125.78510000
89.19999946	-127.57960000
89.23999946	-125.78510000
89.27999946	-122.19000000
89.31999946	-120.39550000
89.35999946	-115.00600000
89.39999946	-107.81580000
89.43999946	-97.03055000
89.47999946	-86.25141000
89.51999946	-73.67168000
89.55999946	-61.09195000
89.59999946	-46.71774000
89.63999946	-35.93859000
89.67999945	-21.55827000
89.71999945	-7.18405700
89.75999945	5.38956800
89.79999945	19.76379000
89.83999945	28.74844000
89.87999945	39.52757000
89.91999945	50.31281000
89.95999945	57.50298000
89.99999945	66.48762000
90.03999945	71.87719000
90.07999945	79.06125000
90.11999945	86.25141000
90.15999945	93.44157000
90.19999945	100.62560000
90.23999945	107.81580000
90.27999945	113.20540000
90.31999945	120.39550000
90.35999945	127.57960000
90.39999945	131.17470000
90.43999945	134.76970000
90.47999945	136.56420000
90.51999945	134.76970000
90.55999945	132.97520000
90.59999945	129.38020000
90.63999945	122.19000000
90.67999945	113.20540000
90.71999945	104.22070000
90.75999945	91.64098000
90.79999945	79.06125000
90.83999945	66.48762000
90.87999945	52.10730000
90.91999945	37.73308000
90.95999945	25.15336000
90.99999945	12.57363000
91.03999945	0.00000000
91.07999945	-10.77914000
91.11999945	-21.55827000
91.15999945	-30.54292000
91.19999945	-39.52757000
91.23999945	-46.71774000
91.27999945	-53.90789000
91.31999945	-61.09195000
91.35999944	-66.48762000
91.39999944	-73.67168000
91.43999944	-79.06125000
91.47999944	-86.25141000
91.51999944	-91.64098000
91.55999944	-97.03055000
91.59999944	-102.42620000
91.63999944	-109.61030000
91.67999944	-115.00600000
91.71999944	-120.39550000
91.75999944	-123.99060000
91.79999944	-125.78510000
91.83999944	-127.57960000
91.87999944	-125.78510000
91.91999944	-123.99060000
91.95999944	-122.19000000
91.99999944	-115.00600000
92.03999944	-107.81580000
92.07999944	-98.83114000
92.11999944	-88.04590000
92.15999944	-75.47227000
92.19999944	-62.89254000
92.23999944	-50.31281000
92.27999944	-35.93859000
92.31999944	-23.35887000
92.35999944	-10.77914000
92.39999944	5.38956800
92.43999944	14.37422000
92.47999944	26.95395000
92.51999944	37.73308000
92.55999944	46.71774000
92.59999944	55.70238000
92.63999944	62.89254000
92.67999944	70.07660000
92.71999944	77.26676000
92.75999944	84.45692000
92.79999944	91.64098000
92.83999944	98.83114000
92.87999944	106.01520000
92.91999944	113.20540000
92.95999944	120.39550000
92.99999943	125.78510000
93.03999943	131.17470000
93.07999943	134.76970000
93.11999943	136.56420000
93.15999943	129.38020000
93.19999943	131.17470000
93.23999943	131.17470000
93.27999943	125.78510000
93.31999943	113.20540000
93.35999943	104.22070000
93.39999943	93.44157000
93.43999943	80.86184000
93.47999943	68.28211000
93.51999943	53.90789000
93.55999943	41.32816000
93.59999943	28.74844000
93.63999943	14.37422000
93.67999943	3.58897700
93.71999943	-8.98464900
93.75999943	-19.76379000
93.79999943	-26.95395000
93.83999943	-37.73308000
93.87999943	-44.92325000
93.91999943	-50.31281000
93.95999943	-59.29746000
93.99999943	-64.68703000
94.03999943	-71.87719000
94.07999943	-79.06125000
94.11999943	-82.65633000
94.15999943	-89.84650000
94.19999943	-95.23605000
94.23999943	-100.62560000
94.27999943	-107.81580000
94.31999943	-113.20540000
94.35999943	-118.59490000
94.39999943	-122.19000000
94.43999943	-125.78510000
94.47999943	-127.57960000
94.51999943	-127.57960000
94.55999943	-123.99060000
94.59999943	-122.19000000
94.63999942	-116.80040000
94.67999942	-109.61030000
94.71999942	-100.62560000
94.75999942	-89.84650000
94.79999942	-79.06125000
94.83999942	-66.48762000
94.87999942	-53.90789000
94.91999942	-39.52757000
94.95999942	-25.15336000
94.99999942	-10.77914000
95.03999942	0.00000000
95.07999942	12.57363000
95.11999942	25.15336000
95.15999942	35.93859000
95.19999942	44.92325000
95.23999942	52.10730000
95.27999942	61.09195000
95.31999942	68.28211000
95.35999942	75.47227000
95.39999942	80.86184000
95.43999942	89.84650000
95.47999942	97.03055000
95.51999942	104.22070000
95.55999942	111.41090000
95.59999942	118.59490000
95.63999942	125.78510000
95.67999942	129.38020000
95.71999942	134.76970000
95.75999942	136.56420000
95.79999942	136.56420000
95.83999942	134.76970000
95.87999942	129.38020000
95.91999942	123.99060000
95.95999942	116.80040000
95.99999942	107.81580000
96.03999942	95.23605000
96.07999942	84.45692000
96.11999942	71.87719000
96.15999942	57.50298000
96.19999942	43.12265000
96.23999942	30.54292000
96.27999941	17.96930000
96.31999941	5.38956800
96.35999941	-7.18405700
96.39999941	-16.16870000
96.43999941	-26.95395000
96.47999941	-35.93859000
96.51999941	-43.12265000
96.55999941	-50.31281000
96.59999941	-57.50298000
96.63999941	-64.68703000
96.67999941	-70.07660000
96.71999941	-75.47227000
96.75999941	-80.86184000
96.79999941	-88.04590000
96.83999941	-93.44157000
96.87999941	-100.62560000
96.91999941	-107.81580000
96.95999941	-113.20540000
96.99999941	-116.80040000
97.03999941	-122.19000000
97.07999941	-125.78510000
97.11999941	-125.78510000
97.15999941	-127.57960000
97.19999941	-125.78510000
97.23999941	-122.19000000
97.27999941	-118.59490000
97.31999941	-111.41090000
97.35999941	-102.42620000
97.39999941	-93.44157000
97.43999941	-80.86184000
97.47999941	-68.28211000
97.51999941	-55.70238000
97.55999941	-41.32816000
97.59999941	-28.74844000
97.63999941	-14.37422000
97.67999941	0.00000000
97.71999941	10.77914000
97.75999941	23.35887000
97.79999941	34.13800000
97.83999941	43.12265000
97.87999941	50.31281000
97.91999940	59.29746000
97.95999940	66.48762000
97.99999940	73.67168000
98.03999940	80.86184000
98.07999940	88.04590000
98.11999940	86.25141000
98.15999940	102.42620000
98.19999940	115.00600000
98.23999940	118.59490000
98.27999940	122.19000000
98.31999940	125.78510000
98.35999940	134.76970000
98.39999940	138.36480000
98.43999940	136.56420000
98.47999940	134.76970000
98.51999940	132.97520000
98.55999940	127.57960000
98.59999940	118.59490000
98.63999940	109.61030000
98.67999940	100.62560000
98.71999940	86.25141000
98.75999940	73.67168000
98.79999940	61.09195000
98.83999940	46.71774000
98.87999940	32.34352000
98.91999940	19.76379000
98.95999940	7.18405700
98.99999940	-3.58897700
99.03999940	-14.37422000
99.07999940	-25.15336000
99.11999940	-34.13800000
99.15999940	-43.12265000
99.19999940	-50.31281000
99.23999940	-55.70238000
99.27999940	-61.09195000
99.31999940	-66.48762000
99.35999940	-73.67168000
99.39999940	-79.06125000
99.43999940	-86.25141000
99.47999940	-93.44157000
99.51999940	-98.83114000
99.55999939	-104.22070000
99.59999939	-109.61030000
99.63999939	-115.00600000
99.67999939	-120.39550000
99.71999939	-125.78510000
99.75999939	-127.57960000
99.79999939	-127.57960000
99.83999939	-127.57960000
99.87999939	-123.99060000
99.91999939	-120.39550000
99.95999939	-113.20540000
99.99999939	-104.22070000
100.03999939	-95.23605000
100.07999939	-84.45692000
100.11999939	-71.87719000
100.15999939	-57.50298000
100.19999939	-44.92325000
100.23999939	-30.54292000
100.27999939	-16.16870000
100.31999939	-3.58897700
100.35999939	8.98464900
100.39999939	19.76379000
100.43999939	30.54292000
100.47999939	41.32816000
100.51999939	50.31281000
100.55999939	57.50298000
100.59999939	64.68703000
100.63999939	71.87719000
100.67999939	77.26676000
100.71999939	84.45692000
100.75999939	91.64098000
100.79999939	98.83114000
100.83999939	107.81580000
100.87999939	115.00600000
100.91999939	122.19000000
100.95999939	127.57960000
100.99999939	132.97520000
101.03999939	136.56420000
101.07999939	136.56420000
101.11999939	136.56420000
101.15999939	134.76970000
101.19999938	129.38020000
101.23999938	122.19000000
101.27999938	113.20540000
101.31999938	100.62560000
101.35999938	89.84650000
101.39999938	77.26676000
101.43999938	62.89254000
101.47999938	50.31281000
101.51999938	35.93859000
101.55999938	21.55827000
101.59999938	8.98464900
101.63999938	-1.79448800
101.67999938	-12.57363000
101.71999938	-23.35887000
101.75999938	-32.34352000
101.79999938	-39.52757000
101.83999938	-48.51222000
101.87999938	-55.70238000
101.91999938	-61.09195000
101.95999938	-66.48762000
101.99999938	-71.87719000
102.03999938	-79.06125000
102.07999938	-86.25141000
102.11999938	-89.84650000
102.15999938	-97.03055000
102.19999938	-102.42620000
102.23999938	-109.61030000
102.27999938	-115.00600000
102.31999938	-120.39550000
102.35999938	-123.99060000
102.39999938	-125.78510000
102.43999938	-127.57960000
102.47999938	-127.57960000
102.51999938	-125.78510000
102.55999938	-120.39550000
102.59999938	-115.00600000
102.63999938	-107.81580000
102.67999938	-98.83114000
102.71999938	-86.25141000
102.75999938	-73.67168000
102.79999938	-61.09195000
102.83999937	-46.71774000
102.87999937	-34.13800000
102.91999937	-19.76379000
102.95999937	-7.18405700
102.99999937	0.00000000
103.03999937	16.16870000
103.07999937	30.54292000
103.11999937	41.32816000
103.15999937	48.51222000
103.19999937	55.70238000
103.23999937	64.68703000
103.27999937	71.87719000
103.31999937	75.47227000
103.35999937	84.45692000
103.39999937	91.64098000
103.43999937	100.62560000
103.47999937	107.81580000
103.51999937	113.20540000
103.55999937	120.39550000
103.59999937	127.57960000
103.63999937	131.17470000
103.67999937	134.76970000
103.71999937	136.56420000
103.75999937	136.56420000
103.79999937	134.76970000
103.83999937	129.38020000
103.87999937	122.19000000
103.91999937	113.20540000
103.95999937	104.22070000
103.99999937	91.64098000
104.03999937	79.06125000
104.07999937	64.68703000
104.11999937	52.10730000
104.15999937	39.52757000
104.19999937	26.95395000
104.23999937	14.37422000
104.27999937	10.77914000
104.31999937	12.57363000
104.35999937	17.96930000
104.39999937	-1.79448800
104.43999937	-28.74844000
104.47999937	-43.12265000
104.51999936	-57.50298000
104.55999936	-79.06125000
104.59999936	-107.81580000
104.63999936	-125.78510000
104.67999936	-122.19000000
104.71999936	-107.81580000
104.75999936	-98.83114000
104.79999936	-100.62560000
104.83999936	-100.62560000
104.87999936	-93.44157000
104.91999936	-89.84650000
104.95999936	-98.83114000
104.99999936	-113.20540000
105.03999936	-122.19000000
105.07999936	-120.39550000
105.11999936	-115.00600000
105.15999936	-115.00600000
105.19999936	-115.00600000
105.23999936	-111.41090000
105.27999936	-100.62560000
105.31999936	-89.84650000
105.35999936	-80.86184000
105.39999936	-71.87719000
105.43999936	-62.89254000
105.47999936	-50.31281000
105.51999936	-39.52757000
105.55999936	-32.34352000
105.59999936	-23.35887000
105.63999936	-14.37422000
105.67999936	-1.79448800
105.71999936	14.37422000
105.75999936	28.74844000
105.79999936	43.12265000
105.83999936	55.70238000
105.87999936	68.28211000
105.91999936	79.06125000
105.95999936	86.25141000
105.99999936	89.84650000
106.03999936	95.23605000
106.07999936	100.62560000
106.11999936	106.01520000
106.15999935	113.20540000
106.19999935	118.59490000
106.23999935	125.78510000
106.27999935	132.97520000
106.31999935	138.36480000
106.35999935	140.15930000
106.39999935	138.36480000
106.43999935	132.97520000
106.47999935	127.57960000
106.51999935	118.59490000
106.55999935	107.81580000
106.59999935	97.03055000
106.63999935	86.25141000
106.67999935	75.47227000
106.71999935	64.68703000
106.75999935	55.70238000
106.79999935	43.12265000
106.83999935	30.54292000
106.87999935	19.76379000
106.91999935	7.18405700
106.95999935	-3.58897700
106.99999935	-14.37422000
107.03999935	-23.35887000
107.07999935	-32.34352000
107.11999935	-39.52757000
107.15999935	-48.51222000
107.19999935	-55.70238000
107.23999935	-61.09195000
107.27999935	-68.28211000
107.31999935	-75.47227000
107.35999935	-82.65633000
107.39999935	-88.04590000
107.43999935	-95.23605000
107.47999935	-100.62560000
107.51999935	-107.81580000
107.55999935	-115.00600000
107.59999935	-122.19000000
107.63999935	-125.78510000
107.67999935	-129.38020000
107.71999935	-129.38020000
107.75999935	-129.38020000
107.79999934	-125.78510000
107.83999934	-120.39550000
107.87999934	-115.00600000
107.91999934	-104.22070000
107.95999934	-104.22070000
107.99999934	-89.84650000
108.03999934	-71.87719000
108.07999934	-61.09195000
108.11999934	-53.90789000
108.15999934	-43.12265000
108.19999934	-26.95395000
108.23999934	-10.77914000
108.27999934	1.79448800
108.31999934	12.57363000
108.35999934	25.15336000
108.39999934	34.13800000
108.43999934	43.12265000
108.47999934	50.31281000
108.51999934	59.29746000
108.55999934	64.68703000
108.59999934	71.87719000
108.63999934	79.06125000
108.67999934	86.25141000
108.71999934	93.44157000
108.75999934	102.42620000
108.79999934	109.61030000
108.83999934	118.59490000
108.87999934	125.78510000
108.91999934	131.17470000
108.95999934	136.56420000
108.99999934	138.36480000
109.03999934	140.15930000
109.07999934	136.56420000
109.11999934	134.76970000
109.15999934	127.57960000
109.19999934	118.59490000
109.23999934	109.61030000
109.27999934	98.83114000
109.31999934	86.25141000
109.35999934	71.87719000
109.39999934	57.50298000
109.43999933	44.92325000
109.47999933	32.34352000
109.51999933	16.16870000
109.55999933	3.58897700
109.59999933	-7.18405700
109.63999933	-16.16870000
109.67999933	-26.95395000
109.71999933	-35.93859000
109.75999933	-43.12265000
109.79999933	-48.51222000
109.83999933	-53.90789000
109.87999933	-61.09195000
109.91999933	-66.48762000
109.95999933	-71.87719000
109.99999933	-79.06125000
110.03999933	-84.45692000
110.07999933	-89.84650000
110.11999933	-97.03055000
110.15999933	-102.42620000
110.19999933	-109.61030000
110.23999933	-115.00600000
110.27999933	-122.19000000
110.31999933	-123.99060000
110.35999933	-127.57960000
110.39999933	-127.57960000
110.43999933	-127.57960000
110.47999933	-125.78510000
110.51999933	-120.39550000
110.55999933	-115.00600000
110.59999933	-106.01520000
110.63999933	-95.23605000
110.67999933	-82.65633000
110.71999933	-70.07660000
110.75999933	-57.50298000
110.79999933	-43.12265000
110.83999933	-28.74844000
110.87999933	-12.57363000
110.91999933	0.00000000
110.95999933	12.57363000
110.99999933	25.15336000
111.03999933	34.13800000
111.07999932	43.12265000
111.11999932	52.10730000
111.15999932	59.29746000
111.19999932	66.48762000
111.23999932	71.87719000
111.27999932	77.26676000
111.31999932	84.45692000
111.35999932	91.64098000
111.39999932	98.83114000
111.43999932	106.01520000
111.47999932	113.20540000
111.51999932	120.39550000
111.55999932	127.57960000
111.59999932	132.97520000
111.63999932	136.56420000
111.67999932	136.56420000
111.71999932	136.56420000
111.75999932	134.76970000
111.79999932	129.38020000
111.83999932	122.19000000
111.87999932	113.20540000
111.91999932	104.22070000
111.95999932	91.64098000
111.99999932	79.06125000
112.03999932	64.68703000
112.07999932	50.31281000
112.11999932	35.93859000
112.15999932	21.55827000
112.19999932	7.18405700
112.23999932	-3.58897700
112.27999932	-14.37422000
112.31999932	-25.15336000
112.35999932	-34.13800000
112.39999932	-43.12265000
112.43999932	-50.31281000
112.47999932	-57.50298000
112.51999932	-62.89254000
112.55999932	-66.48762000
112.59999932	-73.67168000
112.63999932	-79.06125000
112.67999932	-84.45692000
112.71999931	-89.84650000
112.75999931	-95.23605000
112.79999931	-100.62560000
112.83999931	-109.61030000
112.87999931	-118.59490000
112.91999931	-118.59490000
112.95999931	-118.59490000
112.99999931	-123.99060000
113.03999931	-125.78510000
113.07999931	-127.57960000
113.11999931	-123.99060000
113.15999931	-120.39550000
113.19999931	-115.00600000
113.23999931	-107.81580000
113.27999931	-97.03055000
113.31999931	-86.25141000
113.35999931	-73.67168000
113.39999931	-61.09195000
113.43999931	-46.71774000
113.47999931	-34.13800000
113.51999931	-19.76379000
113.55999931	-5.38956800
113.59999931	7.18405700
113.63999931	19.76379000
113.67999931	32.34352000
113.71999931	43.12265000
113.75999931	50.31281000
113.79999931	57.50298000
113.83999931	68.28211000
113.87999931	73.67168000
113.91999931	79.06125000
113.95999931	86.25141000
113.99999931	93.44157000
114.03999931	100.62560000
114.07999931	107.81580000
114.11999931	113.20540000
114.15999931	120.39550000
114.19999931	127.57960000
114.23999931	131.17470000
114.27999931	134.76970000
114.31999931	134.76970000
114.35999930	136.56420000
114.39999930	132.97520000
114.43999930	129.38020000
114.47999930	122.19000000
114.51999930	115.00600000
114.55999930	104.22070000
114.59999930	91.64098000
114.63999930	79.06125000
114.67999930	66.48762000
114.71999930	53.90789000
114.75999930	39.52757000
114.79999930	26.95395000
114.83999930	14.37422000
114.87999930	0.00000000
114.91999930	-10.77914000
114.95999930	-21.55827000
114.99999930	-30.54292000
115.03999930	-39.52757000
115.07999930	-46.71774000
115.11999930	-55.70238000
115.15999930	-61.09195000
115.19999930	-66.48762000
115.23999930	-73.67168000
115.27999930	-79.06125000
115.31999930	-86.25141000
115.35999930	-89.84650000
115.39999930	-97.03055000
115.43999930	-102.42620000
115.47999930	-109.61030000
115.51999930	-115.00600000
115.55999930	-118.59490000
115.59999930	-122.19000000
115.63999930	-125.78510000
115.67999930	-127.57960000
115.71999930	-127.57960000
115.75999930	-123.99060000
115.79999930	-122.19000000
115.83999930	-115.00600000
115.87999930	-107.81580000
115.91999930	-98.83114000
115.95999930	-88.04590000
115.99999930	-77.26676000
116.03999929	-64.68703000
116.07999929	-50.31281000
116.11999929	-35.93859000
116.15999929	-23.35887000
116.19999929	-8.98464900
116.23999929	5.38956800
116.27999929	14.37422000
116.31999929	26.95395000
116.35999929	39.52757000
116.39999929	46.71774000
116.43999929	57.50298000
116.47999929	64.68703000
116.51999929	71.87719000
116.55999929	79.06125000
116.59999929	84.45692000
116.63999929	91.64098000
116.67999929	98.83114000
116.71999929	106.01520000
116.75999929	113.20540000
116.79999929	120.39550000
116.83999929	127.57960000
116.87999929	129.38020000
116.91999929	134.76970000
116.95999929	136.56420000
116.99999929	136.56420000
117.03999929	134.76970000
117.07999929	129.38020000
117.11999929	123.99060000
117.15999929	115.00600000
117.19999929	106.01520000
117.23999929	93.44157000
117.27999929	82.65633000
117.31999929	68.28211000
117.35999929	55.70238000
117.39999929	41.32816000
117.43999929	28.74844000
117.47999929	16.16870000
117.51999929	1.79448800
117.55999929	-7.18405700
117.59999929	-17.96930000
117.63999929	-28.74844000
117.67999928	-37.73308000
117.71999928	-44.92325000
117.75999928	-50.31281000
117.79999928	-59.29746000
117.83999928	-73.67168000
117.87999928	-70.07660000
117.91999928	-71.87719000
117.95999928	-82.65633000
117.99999928	-91.64098000
118.03999928	-98.83114000
118.07999928	-100.62560000
118.11999928	-106.01520000
118.15999928	-115.00600000
118.19999928	-118.59490000
118.23999928	-122.19000000
118.27999928	-123.99060000
118.31999928	-127.57960000
118.35999928	-127.57960000
118.39999928	-123.99060000
118.43999928	-122.19000000
118.47999928	-116.80040000
118.51999928	-109.61030000
118.55999928	-100.62560000
118.59999928	-91.64098000
118.63999928	-79.06125000
118.67999928	-66.48762000
118.71999928	-52.10730000
118.75999928	-39.52757000
118.79999928	-25.15336000
118.83999928	-10.77914000
118.87999928	0.00000000
118.91999928	12.57363000
118.95999928	25.15336000
118.99999928	35.93859000
119.03999928	46.71774000
119.07999928	53.90789000
119.11999928	61.09195000
119.15999928	70.07660000
119.19999928	75.47227000
119.23999928	80.86184000
119.27999928	89.84650000
119.31999927	97.03055000
119.35999927	104.22070000
119.39999927	111.41090000
119.43999927	118.59490000
119.47999927	125.78510000
119.51999927	129.38020000
119.55999927	134.76970000
119.59999927	136.56420000
119.63999927	136.56420000
119.67999927	134.76970000
119.71999927	131.17470000
119.75999927	127.57960000
119.79999927	116.80040000
119.83999927	107.81580000
119.87999927	97.03055000
119.91999927	84.45692000
119.95999927	71.87719000
119.99999927	59.29746000
120.03999927	44.92325000
120.07999927	30.54292000
120.11999927	17.96930000
120.15999927	5.38956800
120.19999927	-5.38956800
120.23999927	-16.16870000
120.27999927	-26.95395000
120.31999927	-35.93859000
120.35999927	-43.12265000
120.39999927	-50.31281000
120.43999927	-57.50298000
120.47999927	-64.68703000
120.51999927	-70.07660000
120.55999927	-75.47227000
120.59999927	-80.86184000
120.63999927	-88.04590000
120.67999927	-93.44157000
120.71999927	-100.62560000
120.75999927	-107.81580000
120.79999927	-113.20540000
120.83999927	-116.80040000
120.87999927	-122.19000000
120.91999927	-125.78510000
120.95999926	-127.57960000
120.99999926	-127.57960000
121.03999926	-125.78510000
121.07999926	-123.99060000
121.11999926	-118.59490000
121.15999926	-113.20540000
121.19999926	-102.42620000
121.23999926	-93.44157000
121.27999926	-80.86184000
121.31999926	-70.07660000
121.35999926	-55.70238000
121.39999926	-43.12265000
121.43999926	-28.74844000
121.47999926	-14.37422000
121.51999926	-1.79448800
121.55999926	10.77914000
121.59999926	21.55827000
121.63999926	32.34352000
121.67999926	43.12265000
121.71999926	52.10730000
121.75999926	59.29746000
121.79999926	68.28211000
121.83999926	73.67168000
121.87999926	79.06125000
121.91999926	88.04590000
121.95999926	93.44157000
121.99999926	102.42620000
122.03999926	109.61030000
122.07999926	116.80040000
122.11999926	122.19000000
122.15999926	129.38020000
122.19999926	134.76970000
122.23999926	136.56420000
122.27999926	136.56420000
122.31999926	136.56420000
122.35999926	132.97520000
122.39999926	127.57960000
122.43999926	120.39550000
122.47999926	111.41090000
122.51999926	98.83114000
122.55999926	86.25141000
122.59999925	75.47227000
122.63999925	61.09195000
122.67999925	44.92325000
122.71999925	28.74844000
122.75999925	19.76379000
122.79999925	10.77914000
122.83999925	-3.58897700
122.87999925	-14.37422000
122.91999925	-26.95395000
122.95999925	-34.13800000
122.99999925	-43.12265000
123.03999925	-50.31281000
123.07999925	-55.70238000
123.11999925	-61.09195000
123.15999925	-68.28211000
123.19999925	-73.67168000
123.23999925	-80.86184000
123.27999925	-86.25141000
123.31999925	-93.44157000
123.35999925	-98.83114000
123.39999925	-104.22070000
123.43999925	-111.41090000
123.47999925	-116.80040000
123.51999925	-122.19000000
123.55999925	-125.78510000
123.59999925	-127.57960000
123.63999925	-129.38020000
123.67999925	-127.57960000
123.71999925	-125.78510000
123.75999925	-120.39550000
123.79999925	-115.00600000
123.83999925	-106.01520000
123.87999925	-95.23605000
123.91999925	-84.45692000
123.95999925	-71.87719000
123.99999925	-57.50298000
124.03999925	-43.12265000
124.07999925	-30.54292000
124.11999925	-17.96930000
124.15999925	-5.38956800
124.19999925	8.98464900
124.23999924	21.55827000
124.27999924	30.54292000
124.31999924	41.32816000
124.35999924	50.31281000
124.39999924	57.50298000
124.43999924	64.68703000
124.47999924	71.87719000
124.51999924	79.06125000
124.55999924	84.45692000
124.59999924	93.44157000
124.63999924	100.62560000
124.67999924	107.81580000
124.71999924	115.00600000
124.75999924	122.19000000
124.79999924	127.57960000
124.83999924	132.97520000
124.87999924	136.56420000
124.91999924	138.36480000
124.95999924	136.56420000
124.99999924	132.97520000
125.03999924	129.38020000
125.07999924	122.19000000
125.11999924	113.20540000
125.15999924	100.62560000
125.19999924	89.84650000
125.23999924	77.26676000
125.27999924	62.89254000
125.31999924	50.31281000
125.35999924	35.93859000
125.39999924	23.35887000
125.43999924	8.98464900
125.47999924	-1.79448800
125.51999924	-12.57363000
125.55999924	-23.35887000
125.59999924	-32.34352000
125.63999924	-39.52757000
125.67999924	-48.51222000
125.71999924	-55.70238000
125.75999924	-61.09195000
125.79999924	-66.48762000
125.83999924	-71.87719000
125.87999923	-79.06125000
125.91999923	-86.25141000
125.95999923	-91.64098000
125.99999923	-97.03055000
126.03999923	-104.22070000
126.07999923	-109.61030000
126.11999923	-115.00600000
126.15999923	-120.39550000
126.19999923	-123.99060000
126.23999923	-127.57960000
126.27999923	-127.57960000
126.31999923	-127.57960000
126.35999923	-123.99060000
126.39999923	-120.39550000
126.43999923	-115.00600000
126.47999923	-107.81580000
126.51999923	-98.83114000
126.55999923	-86.25141000
126.59999923	-73.67168000
126.63999923	-61.09195000
126.67999923	-48.51222000
126.71999923	-34.13800000
126.75999923	-21.55827000
126.79999923	-7.18405700
126.83999923	5.38956800
126.87999923	17.96930000
126.91999923	28.74844000
126.95999923	39.52757000
126.99999923	48.51222000
127.03999923	57.50298000
127.07999923	64.68703000
127.11999923	71.87719000
127.15999923	77.26676000
127.19999923	84.45692000
127.23999923	91.64098000
127.27999923	100.62560000
127.31999923	107.81580000
127.35999923	113.20540000
127.39999923	120.39550000
127.43999923	127.57960000
127.47999923	131.17470000
127.51999923	134.76970000
127.55999922	136.56420000
127.59999922	140.15930000
127.63999922	129.38020000
127.67999922	125.78510000
127.71999922	125.78510000
127.75999922	118.59490000
127.79999922	102.42620000
127.83999922	89.84650000
127.87999922	79.06125000
127.91999922	70.07660000
127.95999922	53.90789000
127.99999922	37.73308000
128.03999922	26.95395000
128.07999922	14.37422000
128.11999922	0.00000000
128.15999922	-10.77914000
128.19999922	-19.76379000
128.23999922	-30.54292000
128.27999922	-39.52757000
128.31999922	-46.71774000
128.35999922	-52.10730000
128.39999922	-59.29746000
128.43999922	-66.48762000
128.47999922	-71.87719000
128.51999922	-77.26676000
128.55999922	-84.45692000
128.59999922	-89.84650000
128.63999922	-97.03055000
128.67999922	-102.42620000
128.71999922	-107.81580000
128.75999922	-115.00600000
128.79999922	-118.59490000
128.83999922	-122.19000000
128.87999922	-125.78510000
128.91999922	-127.57960000
128.95999922	-127.57960000
128.99999922	-123.99060000
129.03999922	-122.19000000
129.07999922	-116.80040000
129.11999922	-109.61030000
129.15999922	-100.62560000
129.19999921	-88.04590000
129.23999921	-77.26676000
129.27999921	-64.68703000
129.31999921	-52.10730000
129.35999921	-35.93859000
129.39999921	-23.35887000
129.43999921	-10.77914000
129.47999921	3.58897700
129.51999921	14.37422000
129.55999921	26.95395000
129.59999921	35.93859000
129.63999921	46.71774000
129.67999921	53.90789000
129.71999921	61.09195000
129.75999921	71.87719000
129.79999921	77.26676000
129.83999921	82.65633000
129.87999921	89.84650000
129.91999921	97.03055000
129.95999921	104.22070000
129.99999921	111.41090000
130.03999921	118.59490000
130.07999921	125.78510000
130.11999921	131.17470000
130.15999921	134.76970000
130.19999921	136.56420000
130.23999921	136.56420000
130.27999921	134.76970000
130.31999921	131.17470000
130.35999921	123.99060000
130.39999921	116.80040000
130.43999921	106.01520000
130.47999921	95.23605000
130.51999921	82.65633000
130.55999921	70.07660000
130.59999921	55.70238000
130.63999921	41.32816000
130.67999921	28.74844000
130.71999921	16.16870000
130.75999921	3.58897700
130.79999921	-7.18405700
130.83999920	-17.96930000
130.87999920	-28.74844000
130.91999920	-35.93859000
130.95999920	-43.12265000
130.99999920	-52.10730000
131.03999920	-57.50298000
131.07999920	-64.68703000
131.11999920	-71.87719000
131.15999920	-75.47227000
131.19999920	-82.65633000
131.23999920	-89.84650000
131.27999920	-93.44157000
131.31999920	-100.62560000
131.35999920	-107.81580000
131.39999920	-113.20540000
131.43999920	-118.59490000
131.47999920	-122.19000000
131.51999920	-125.78510000
131.55999920	-129.38020000
131.59999920	-127.57960000
131.63999920	-125.78510000
131.67999920	-123.99060000
131.71999920	-118.59490000
131.75999920	-111.41090000
131.79999920	-100.62560000
131.83999920	-91.64098000
131.87999920	-79.06125000
131.91999920	-66.48762000
131.95999920	-53.90789000
131.99999920	-39.52757000
132.03999920	-25.15336000
132.07999920	-12.57363000
132.11999920	0.00000000
132.15999920	12.57363000
132.19999920	25.15336000
132.23999920	35.93859000
132.27999920	44.92325000
132.31999920	52.10730000
132.35999920	61.09195000
132.39999920	68.28211000
132.43999920	73.67168000
132.47999919	80.86184000
132.51999919	86.25141000
132.55999919	89.84650000
132.59999919	102.42620000
132.63999919	113.20540000
132.67999919	116.80040000
132.71999919	123.99060000
132.75999919	127.57960000
132.79999919	132.97520000
132.83999919	136.56420000
132.87999919	136.56420000
132.91999919	136.56420000
132.95999919	132.97520000
132.99999919	127.57960000
133.03999919	118.59490000
133.07999919	109.61030000
133.11999919	98.83114000
133.15999919	84.45692000
133.19999919	71.87719000
133.23999919	59.29746000
133.27999919	44.92325000
133.31999919	32.34352000
133.35999919	25.15336000
133.39999919	21.55827000
133.43999919	14.37422000
133.47999919	5.38956800
133.51999919	-5.38956800
133.55999919	-23.35887000
133.59999919	-44.92325000
133.63999919	-66.48762000
133.67999919	-86.25141000
133.71999919	-102.42620000
133.75999919	-109.61030000
133.79999919	-109.61030000
133.83999919	-102.42620000
133.87999919	-97.03055000
133.91999919	-93.44157000
133.95999919	-89.84650000
133.99999919	-89.84650000
134.03999919	-93.44157000
134.07999919	-100.62560000
134.11999918	-109.61030000
134.15999918	-115.00600000
134.19999918	-116.80040000
134.23999918	-118.59490000
134.27999918	-118.59490000
134.31999918	-116.80040000
134.35999918	-111.41090000
134.39999918	-104.22070000
134.43999918	-97.03055000
134.47999918	-89.84650000
134.51999918	-80.86184000
134.55999918	-70.07660000
134.59999918	-59.29746000
134.63999918	-50.31281000
134.67999918	-39.52757000
134.71999918	-28.74844000
134.75999918	-16.16870000
134.79999918	-3.58897700
134.83999918	10.77914000
134.87999918	26.95395000
134.91999918	41.32816000
134.95999918	55.70238000
134.99999918	64.68703000
135.03999918	75.47227000
135.07999918	80.86184000
135.11999918	86.25141000
135.15999918	89.84650000
135.19999918	95.23605000
135.23999918	100.62560000
135.27999918	107.81580000
135.31999918	115.00600000
135.35999918	122.19000000
135.39999918	129.38020000
135.43999918	134.76970000
135.47999918	136.56420000
135.51999918	136.56420000
135.55999918	132.97520000
135.59999918	127.57960000
135.63999918	120.39550000
135.67999918	111.41090000
135.71999918	104.22070000
135.75999917	93.44157000
135.79999917	82.65633000
135.83999917	71.87719000
135.87999917	62.89254000
135.91999917	50.31281000
135.95999917	37.73308000
135.99999917	25.15336000
136.03999917	12.57363000
136.07999917	0.00000000
136.11999917	-10.77914000
136.15999917	-21.55827000
136.19999917	-30.54292000
136.23999917	-37.73308000
136.27999917	-46.71774000
136.31999917	-52.10730000
136.35999917	-61.09195000
136.39999917	-66.48762000
136.43999917	-73.67168000
136.47999917	-79.06125000
136.51999917	-86.25141000
136.55999917	-91.64098000
136.59999917	-100.62560000
136.63999917	-106.01520000
136.67999917	-113.20540000
136.71999917	-118.59490000
136.75999917	-123.99060000
136.79999917	-127.57960000
136.83999917	-127.57960000
136.87999917	-129.38020000
136.91999917	-125.78510000
136.95999917	-122.19000000
136.99999917	-118.59490000
137.03999917	-111.41090000
137.07999917	-102.42620000
137.11999917	-93.44157000
137.15999917	-82.65633000
137.19999917	-71.87719000
137.23999917	-59.29746000
137.27999917	-46.71774000
137.31999917	-32.34352000
137.35999917	-19.76379000
137.39999916	-5.38956800
137.43999916	8.98464900
137.47999916	14.37422000
137.51999916	23.35887000
137.55999916	41.32816000
137.59999916	53.90789000
137.63999916	53.90789000
137.67999916	61.09195000
137.71999916	66.48762000
137.75999916	77.26676000
137.79999916	82.65633000
137.83999916	89.84650000
137.87999916	100.62560000
137.91999916	107.81580000
137.95999916	115.00600000
137.99999916	122.19000000
138.03999916	129.38020000
138.07999916	132.97520000
138.11999916	136.56420000
138.15999916	138.36480000
138.19999916	136.56420000
138.23999916	134.76970000
138.27999916	129.38020000
138.31999916	122.19000000
138.35999916	113.20540000
138.39999916	102.42620000
138.43999916	89.84650000
138.47999916	77.26676000
138.51999916	62.89254000
138.55999916	50.31281000
138.59999916	35.93859000
138.63999916	21.55827000
138.67999916	10.77914000
138.71999916	0.00000000
138.75999916	-12.57363000
138.79999916	-21.55827000
138.83999916	-30.54292000
138.87999916	-39.52757000
138.91999916	-46.71774000
138.95999916	-52.10730000
138.99999916	-57.50298000
139.03999915	-64.68703000
139.07999915	-70.07660000
139.11999915	-77.26676000
139.15999915	-82.65633000
139.19999915	-88.04590000
139.23999915	-97.03055000
139.27999915	-102.42620000
139.31999915	-107.81580000
139.35999915	-115.00600000
139.39999915	-120.39550000
139.43999915	-123.99060000
139.47999915	-127.57960000
139.51999915	-129.38020000
139.55999915	-129.38020000
139.59999915	-125.78510000
139.63999915	-122.19000000
139.67999915	-116.80040000
139.71999915	-109.61030000
139.75999915	-100.62560000
139.79999915	-89.84650000
139.83999915	-75.47227000
139.87999915	-62.89254000
139.91999915	-48.51222000
139.95999915	-35.93859000
139.99999915	-19.76379000
140.03999915	-7.18405700
140.07999915	7.18405700
140.11999915	17.96930000
140.15999915	28.74844000
140.19999915	39.52757000
140.23999915	48.51222000
140.27999915	55.70238000
140.31999915	62.89254000
140.35999915	70.07660000
140.39999915	75.47227000
140.43999915	82.65633000
140.47999915	88.04590000
140.51999915	97.03055000
140.55999915	104.22070000
140.59999915	111.41090000
140.63999915	118.59490000
140.67999915	125.78510000
140.71999914	129.38020000
140.75999914	132.97520000
140.79999914	136.56420000
140.83999914	136.56420000
140.87999914	136.56420000
140.91999914	131.17470000
140.95999914	125.78510000
140.99999914	116.80040000
141.03999914	107.81580000
141.07999914	93.44157000
141.11999914	82.65633000
141.15999914	68.28211000
141.19999914	55.70238000
141.23999914	41.32816000
141.27999914	26.95395000
141.31999914	14.37422000
141.35999914	1.79448800
141.39999914	-10.77914000
141.43999914	-21.55827000
141.47999914	-30.54292000
141.51999914	-39.52757000
141.55999914	-46.71774000
141.59999914	-53.90789000
141.63999914	-59.29746000
141.67999914	-64.68703000
141.71999914	-71.87719000
141.75999914	-77.26676000
141.79999914	-82.65633000
141.83999914	-88.04590000
141.87999914	-93.44157000
141.91999914	-100.62560000
141.95999914	-106.01520000
141.99999914	-111.41090000
142.03999914	-116.80040000
142.07999914	-122.19000000
142.11999914	-123.99060000
142.15999914	-127.57960000
142.19999914	-127.57960000
142.23999914	-125.78510000
142.27999914	-123.99060000
142.31999914	-118.59490000
142.35999913	-113.20540000
142.39999913	-107.81580000
142.43999913	-93.44157000
142.47999913	-79.06125000
142.51999913	-66.48762000
142.55999913	-53.90789000
142.59999913	-41.32816000
142.63999913	-25.15336000
142.67999913	-10.77914000
142.71999913	1.79448800
142.75999913	14.37422000
142.79999913	26.95395000
142.83999913	37.73308000
142.87999913	46.71774000
142.91999913	55.70238000
142.95999913	62.89254000
142.99999913	70.07660000
143.03999913	75.47227000
143.07999913	82.65633000
143.11999913	89.84650000
143.15999913	95.23605000
143.19999913	102.42620000
143.23999913	109.61030000
143.27999913	116.80040000
143.31999913	122.19000000
143.35999913	127.57960000
143.39999913	132.97520000
143.43999913	134.76970000
143.47999913	136.56420000
143.51999913	134.76970000
143.55999913	131.17470000
143.59999913	125.78510000
143.63999913	118.59490000
143.67999913	109.61030000
143.71999913	98.83114000
143.75999913	84.45692000
143.79999913	71.87719000
143.83999913	59.29746000
143.87999913	46.71774000
143.91999913	30.54292000
143.95999913	17.96930000
143.99999912	5.38956800
144.03999912	-7.18405700
144.07999912	-17.96930000
144.11999912	-28.74844000
144.15999912	-37.73308000
144.19999912	-44.92325000
144.23999912	-52.10730000
144.27999912	-59.29746000
144.31999912	-64.68703000
144.35999912	-71.87719000
144.39999912	-77.26676000
144.43999912	-82.65633000
144.47999912	-88.04590000
144.51999912	-93.44157000
144.55999912	-100.62560000
144.59999912	-106.01520000
144.63999912	-111.41090000
144.67999912	-116.80040000
144.71999912	-120.39550000
144.75999912	-123.99060000
144.79999912	-125.78510000
144.83999912	-127.57960000
144.87999912	-125.78510000
144.91999912	-122.19000000
144.95999912	-118.59490000
144.99999912	-111.41090000
145.03999912	-102.42620000
145.07999912	-93.44157000
145.11999912	-82.65633000
145.15999912	-70.07660000
145.19999912	-57.50298000
145.23999912	-43.12265000
145.27999912	-28.74844000
145.31999912	-16.16870000
145.35999912	-1.79448800
145.39999912	10.77914000
145.43999912	25.15336000
145.47999912	35.93859000
145.51999912	48.51222000
145.55999912	62.89254000
145.59999912	80.86184000
145.63999911	98.83114000
145.67999911	93.44157000
145.71999911	77.26676000
145.75999911	79.06125000
145.79999911	86.25141000
145.83999911	77.26676000
145.87999911	70.07660000
145.91999911	73.67168000
145.95999911	95.23605000
145.99999911	116.80040000
146.03999911	131.17470000
146.07999911	136.56420000
146.11999911	141.95990000
146.15999911	149.14400000
146.19999911	150.94450000
146.23999911	141.95990000
146.27999911	125.78510000
146.31999911	113.20540000
146.35999911	107.81580000
146.39999911	100.62560000
146.43999911	82.65633000
146.47999911	64.68703000
146.51999911	53.90789000
146.55999911	41.32816000
146.59999911	28.74844000
146.63999911	14.37422000
146.67999911	-1.79448800
146.71999911	-16.16870000
146.75999911	-28.74844000
146.79999911	-39.52757000
146.83999911	-52.10730000
146.87999911	-62.89254000
146.91999911	-71.87719000
146.95999911	-75.47227000
146.99999911	-75.47227000
147.03999911	-79.06125000
147.07999911	-80.86184000
147.11999911	-84.45692000
147.15999911	-86.25141000
147.19999911	-88.04590000
147.23999911	-97.03055000
147.27999910	-106.01520000
147.31999910	-113.20540000
147.35999910	-118.59490000
147.39999910	-122.19000000
147.43999910	-125.78510000
147.47999910	-127.57960000
147.51999910	-125.78510000
147.55999910	-122.19000000
147.59999910	-116.80040000
147.63999910	-111.41090000
147.67999910	-107.81580000
147.71999910	-98.83114000
147.75999910	-89.84650000
147.79999910	-79.06125000
147.83999910	-66.48762000
147.87999910	-52.10730000
147.91999910	-37.73308000
147.95999910	-23.35887000
147.99999910	-7.18405700
148.03999910	7.18405700
148.07999910	21.55827000
148.11999910	34.13800000
148.15999910	44.92325000
148.19999910	53.90789000
148.23999910	62.89254000
148.27999910	70.07660000
148.31999910	75.47227000
148.35999910	82.65633000
148.39999910	89.84650000
148.43999910	97.03055000
148.47999910	102.42620000
148.51999910	107.81580000
148.55999910	115.00600000
148.59999910	122.19000000
148.63999910	127.57960000
148.67999910	132.97520000
148.71999910	134.76970000
148.75999910	134.76970000
148.79999910	132.97520000
148.83999910	129.38020000
148.87999910	123.99060000
148.91999909	116.80040000
148.95999909	107.81580000
148.99999909	100.62560000
149.03999909	89.84650000
149.07999909	77.26676000
149.11999909	64.68703000
149.15999909	53.90789000
149.19999909	41.32816000
149.23999909	26.95395000
149.27999909	14.37422000
149.31999909	0.00000000
149.35999909	-10.77914000
149.39999909	-23.35887000
149.43999909	-30.54292000
149.47999909	-41.32816000
149.51999909	-46.71774000
149.55999909	-55.70238000
149.59999909	-61.09195000
149.63999909	-68.28211000
149.67999909	-73.67168000
149.71999909	-80.86184000
149.75999909	-88.04590000
149.79999909	-93.44157000
149.83999909	-100.62560000
149.87999909	-107.81580000
149.91999909	-111.41090000
149.95999909	-115.00600000
149.99999909	-122.19000000
150.03999909	-123.99060000
150.07999909	-125.78510000
150.11999909	-125.78510000
150.15999909	-125.78510000
150.19999909	-122.19000000
150.23999909	-118.59490000
150.27999909	-113.20540000
150.31999909	-106.01520000
150.35999909	-95.23605000
150.39999909	-86.25141000
150.43999909	-73.67168000
150.47999909	-61.09195000
150.51999909	-46.71774000
150.55999908	-35.93859000
150.59999908	-21.55827000
150.63999908	-7.18405700
150.67999908	3.58897700
150.71999908	14.37422000
150.75999908	26.95395000
150.79999908	37.73308000
150.83999908	46.71774000
150.87999908	55.70238000
150.91999908	64.68703000
150.95999908	70.07660000
150.99999908	77.26676000
151.03999908	84.45692000
151.07999908	93.44157000
151.11999908	100.62560000
151.15999908	109.61030000
151.19999908	115.00600000
151.23999908	122.19000000
151.27999908	129.38020000
151.31999908	132.97520000
151.35999908	136.56420000
151.39999908	136.56420000
151.43999908	136.56420000
151.47999908	134.76970000
151.51999908	129.38020000
151.55999908	122.19000000
151.59999908	113.20540000
151.63999908	102.42620000
151.67999908	91.64098000
151.71999908	79.06125000
151.75999908	64.68703000
151.79999908	52.10730000
151.83999908	39.52757000
151.87999908	26.95395000
151.91999908	12.57363000
151.95999908	1.79448800
151.99999908	-8.98464900
152.03999908	-19.76379000
152.07999908	-28.74844000
152.11999908	-35.93859000
152.15999908	-43.12265000
152.19999908	-50.31281000
152.23999907	-57.50298000
152.27999907	-71.87719000
152.31999907	-71.87719000
152.35999907	-73.67168000
152.39999907	-82.65633000
152.43999907	-91.64098000
152.47999907	-100.62560000
152.51999907	-102.42620000
152.55999907	-109.61030000
152.59999907	-115.00600000
152.63999907	-120.39550000
152.67999907	-123.99060000
152.71999907	-127.57960000
152.75999907	-129.38020000
152.79999907	-127.57960000
152.83999907	-125.78510000
152.87999907	-122.19000000
152.91999907	-116.80040000
152.95999907	-107.81580000
152.99999907	-97.03055000
153.03999907	-88.04590000
153.07999907	-75.47227000
153.11999907	-62.89254000
153.15999907	-50.31281000
153.19999907	-35.93859000
153.23999907	-23.35887000
153.27999907	-8.98464900
153.31999907	3.58897700
153.35999907	14.37422000
153.39999907	26.95395000
153.43999907	35.93859000
153.47999907	44.92325000
153.51999907	53.90789000
153.55999907	62.89254000
153.59999907	70.07660000
153.63999907	75.47227000
153.67999907	82.65633000
153.71999907	89.84650000
153.75999907	93.44157000
153.79999907	104.22070000
153.83999907	111.41090000
153.87999906	118.59490000
153.91999906	125.78510000
153.95999906	131.17470000
153.99999906	134.76970000
154.03999906	136.56420000
154.07999906	136.56420000
154.11999906	136.56420000
154.15999906	131.17470000
154.19999906	125.78510000
154.23999906	116.80040000
154.27999906	106.01520000
154.31999906	95.23605000
154.35999906	82.65633000
154.39999906	70.07660000
154.43999906	55.70238000
154.47999906	43.12265000
154.51999906	28.74844000
154.55999906	14.37422000
154.59999906	3.58897700
154.63999906	-7.18405700
154.67999906	-17.96930000
154.71999906	-28.74844000
154.75999906	-35.93859000
154.79999906	-43.12265000
154.83999906	-52.10730000
154.87999906	-57.50298000
154.91999906	-64.68703000
154.95999906	-70.07660000
154.99999906	-75.47227000
155.03999906	-80.86184000
155.07999906	-88.04590000
155.11999906	-93.44157000
155.15999906	-100.62560000
155.19999906	-107.81580000
155.23999906	-111.41090000
155.27999906	-116.80040000
155.31999906	-122.19000000
155.35999906	-125.78510000
155.39999906	-127.57960000
155.43999906	-127.57960000
155.47999906	-127.57960000
155.51999905	-122.19000000
155.55999905	-118.59490000
155.59999905	-111.41090000
155.63999905	-102.42620000
155.67999905	-91.64098000
155.71999905	-80.86184000
155.75999905	-66.48762000
155.79999905	-53.90789000
155.83999905	-39.52757000
155.87999905	-25.15336000
155.91999905	-12.57363000
155.95999905	0.00000000
155.99999905	12.57363000
156.03999905	23.35887000
156.07999905	34.13800000
156.11999905	44.92325000
156.15999905	52.10730000
156.19999905	61.09195000
156.23999905	68.28211000
156.27999905	73.67168000
156.31999905	80.86184000
156.35999905	88.04590000
156.39999905	93.44157000
156.43999905	102.42620000
156.47999905	109.61030000
156.51999905	115.00600000
156.55999905	122.19000000
156.59999905	129.38020000
156.63999905	132.97520000
156.67999905	136.56420000
156.71999905	136.56420000
156.75999905	136.56420000
156.79999905	132.97520000
156.83999905	127.57960000
156.87999905	118.59490000
156.91999905	109.61030000
156.95999905	98.83114000
156.99999905	86.25141000
157.03999905	73.67168000
157.07999905	61.09195000
157.11999905	46.71774000
157.15999904	26.95395000
157.19999904	16.16870000
157.23999904	7.18405700
157.27999904	-3.58897700
157.31999904	-16.16870000
157.35999904	-26.95395000
157.39999904	-35.93859000
157.43999904	-43.12265000
157.47999904	-50.31281000
157.51999904	-57.50298000
157.55999904	-61.09195000
157.59999904	-68.28211000
157.63999904	-73.67168000
157.67999904	-79.06125000
157.71999904	-86.25141000
157.75999904	-93.44157000
157.79999904	-98.83114000
157.83999904	-104.22070000
157.87999904	-111.41090000
157.91999904	-115.00600000
157.95999904	-120.39550000
157.99999904	-125.78510000
158.03999904	-127.57960000
158.07999904	-129.38020000
158.11999904	-127.57960000
158.15999904	-123.99060000
158.19999904	-120.39550000
158.23999904	-115.00600000
158.27999904	-104.22070000
158.31999904	-95.23605000
158.35999904	-82.65633000
158.39999904	-70.07660000
158.43999904	-55.70238000
158.47999904	-43.12265000
158.51999904	-28.74844000
158.55999904	-14.37422000
158.59999904	-1.79448800
158.63999904	10.77914000
158.67999904	21.55827000
158.71999904	32.34352000
158.75999904	43.12265000
158.79999903	50.31281000
158.83999903	57.50298000
158.87999903	64.68703000
158.91999903	71.87719000
158.95999903	79.06125000
158.99999903	84.45692000
159.03999903	91.64098000
159.07999903	100.62560000
159.11999903	107.81580000
159.15999903	115.00600000
159.19999903	122.19000000
159.23999903	127.57960000
159.27999903	132.97520000
159.31999903	136.56420000
159.35999903	136.56420000
159.39999903	134.76970000
159.43999903	132.97520000
159.47999903	129.38020000
159.51999903	120.39550000
159.55999903	111.41090000
159.59999903	102.42620000
159.63999903	89.84650000
159.67999903	75.47227000
159.71999903	62.89254000
159.75999903	48.51222000
159.79999903	34.13800000
159.83999903	21.55827000
159.87999903	7.18405700
159.91999903	-3.58897700
159.95999903	-14.37422000
159.99999903	-23.35887000
160.03999903	-32.34352000
160.07999903	-41.32816000
160.11999903	-48.51222000
160.15999903	-55.70238000
160.19999903	-61.09195000
160.23999903	-66.48762000
160.27999903	-73.67168000
160.31999903	-79.06125000
160.35999903	-86.25141000
160.39999903	-89.84650000
160.43999902	-97.03055000
160.47999902	-102.42620000
160.51999902	-109.61030000
160.55999902	-115.00600000
160.59999902	-118.59490000
160.63999902	-122.19000000
160.67999902	-127.57960000
160.71999902	-127.57960000
160.75999902	-127.57960000
160.79999902	-125.78510000
160.83999902	-120.39550000
160.87999902	-115.00600000
160.91999902	-107.81580000
160.95999902	-97.03055000
160.99999902	-86.25141000
161.03999902	-73.67168000
161.07999902	-59.29746000
161.11999902	-46.71774000
161.15999902	-32.34352000
161.19999902	-19.76379000
161.23999902	-5.38956800
161.27999902	7.18405700
161.31999902	19.76379000
161.35999902	30.54292000
161.39999902	41.32816000
161.43999902	50.31281000
161.47999902	57.50298000
161.51999902	64.68703000
161.55999902	71.87719000
161.59999902	77.26676000
161.63999902	84.45692000
161.67999902	91.64098000
161.71999902	100.62560000
161.75999902	106.01520000
161.79999902	113.20540000
161.83999902	120.39550000
161.87999902	127.57960000
161.91999902	131.17470000
161.95999902	134.76970000
161.99999902	136.56420000
162.03999902	136.56420000
162.07999901	136.56420000
162.11999901	122.19000000
162.15999901	120.39550000
162.19999901	118.59490000
162.23999901	107.81580000
162.27999901	91.64098000
162.31999901	77.26676000
162.35999901	64.68703000
162.39999901	55.70238000
162.43999901	39.52757000
162.47999901	25.15336000
162.51999901	12.57363000
162.55999901	0.00000000
162.59999901	-10.77914000
162.63999901	-21.55827000
162.67999901	-30.54292000
162.71999901	-39.52757000
162.75999901	-48.51222000
162.79999901	-53.90789000
162.83999901	-61.09195000
162.87999901	-66.48762000
162.91999901	-73.67168000
162.95999901	-79.06125000
162.99999901	-84.45692000
163.03999901	-89.84650000
163.07999901	-97.03055000
163.11999901	-102.42620000
163.15999901	-107.81580000
163.19999901	-115.00600000
163.23999901	-118.59490000
163.27999901	-122.19000000
163.31999901	-123.99060000
163.35999901	-127.57960000
163.39999901	-125.78510000
163.43999901	-123.99060000
163.47999901	-122.19000000
163.51999901	-115.00600000
163.55999901	-107.81580000
163.59999901	-100.62560000
163.63999901	-88.04590000
163.67999901	-75.47227000
163.71999900	-62.89254000
163.75999900	-50.31281000
163.79999900	-35.93859000
163.83999900	-23.35887000
163.87999900	-8.98464900
163.91999900	3.58897700
163.95999900	16.16870000
163.99999900	26.95395000
164.03999900	37.73308000
164.07999900	48.51222000
164.11999900	55.70238000
164.15999900	62.89254000
164.19999900	71.87719000
164.23999900	77.26676000
164.27999900	84.45692000
164.31999900	91.64098000
164.35999900	98.83114000
164.39999900	106.01520000
164.43999900	113.20540000
164.47999900	120.39550000
164.51999900	125.78510000
164.55999900	131.17470000
164.59999900	134.76970000
164.63999900	136.56420000
164.67999900	136.56420000
164.71999900	134.76970000
164.75999900	129.38020000
164.79999900	122.19000000
164.83999900	115.00600000
164.87999900	106.01520000
164.91999900	93.44157000
164.95999900	82.65633000
164.99999900	68.28211000
165.03999900	55.70238000
165.07999900	41.32816000
165.11999900	28.74844000
165.15999900	14.37422000
165.19999900	3.58897700
165.23999900	-7.18405700
165.27999900	-19.76379000
165.31999900	-28.74844000
165.35999900	-35.93859000
165.39999899	-44.92325000
165.43999899	-52.10730000
165.47999899	-57.50298000
165.51999899	-64.68703000
165.55999899	-71.87719000
165.59999899	-77.26676000
165.63999899	-82.65633000
165.67999899	-89.84650000
165.71999899	-95.23605000
165.75999899	-100.62560000
165.79999899	-107.81580000
165.83999899	-113.20540000
165.87999899	-118.59490000
165.91999899	-122.19000000
165.95999899	-125.78510000
165.99999899	-125.78510000
166.03999899	-127.57960000
166.07999899	-125.78510000
166.11999899	-122.19000000
166.15999899	-116.80040000
166.19999899	-109.61030000
166.23999899	-100.62560000
166.27999899	-89.84650000
166.31999899	-79.06125000
166.35999899	-66.48762000
166.39999899	-52.10730000
166.43999899	-37.73308000
166.47999899	-25.15336000
166.51999899	-10.77914000
166.55999899	0.00000000
166.59999899	14.37422000
166.63999899	25.15336000
166.67999899	35.93859000
166.71999899	44.92325000
166.75999899	53.90789000
166.79999899	61.09195000
166.83999899	70.07660000
166.87999899	75.47227000
166.91999899	80.86184000
166.95999899	88.04590000
166.99999899	89.84650000
167.03999898	100.62560000
167.07999898	113.20540000
167.11999898	118.59490000
167.15999898	123.99060000
167.19999898	129.38020000
167.23999898	132.97520000
167.27999898	136.56420000
167.31999898	136.56420000
167.35999898	136.56420000
167.39999898	131.17470000
167.43999898	125.78510000
167.47999898	116.80040000
167.51999898	107.81580000
167.55999898	97.03055000
167.59999898	84.45692000
167.63999898	71.87719000
167.67999898	57.50298000
167.71999898	44.92325000
167.75999898	30.54292000
167.79999898	17.96930000
167.83999898	5.38956800
167.87999898	-7.18405700
167.91999898	-16.16870000
167.95999898	-26.95395000
167.99999898	-35.93859000
168.03999898	-43.12265000
168.07999898	-50.31281000
168.11999898	-57.50298000
168.15999898	-64.68703000
168.19999898	-68.28211000
168.23999898	-73.67168000
168.27999898	-80.86184000
168.31999898	-86.25141000
168.35999898	-93.44157000
168.39999898	-100.62560000
168.43999898	-106.01520000
168.47999898	-111.41090000
168.51999898	-116.80040000
168.55999898	-120.39550000
168.59999898	-123.99060000
168.63999898	-127.57960000
168.67999897	-131.17470000
168.71999897	-136.56420000
168.75999897	-154.53350000
168.79999897	-154.53350000
168.83999897	-127.57960000
168.87999897	-98.83114000
168.91999897	-89.84650000
168.95999897	-73.67168000
168.99999897	-37.73308000
169.03999897	-7.18405700
169.07999897	5.38956800
169.11999897	0.00000000
169.15999897	-5.38956800
169.19999897	0.00000000
169.23999897	12.57363000
169.27999897	16.16870000
169.31999897	12.57363000
169.35999897	19.76379000
169.39999897	39.52757000
169.43999897	57.50298000
169.47999897	64.68703000
169.51999897	61.09195000
169.55999897	68.28211000
169.59999897	79.06125000
169.63999897	89.84650000
169.67999897	93.44157000
169.71999897	100.62560000
169.75999897	107.81580000
169.79999897	116.80040000
169.83999897	125.78510000
169.87999897	134.76970000
169.91999897	138.36480000
169.95999897	141.95990000
169.99999897	145.54890000
170.03999897	147.34950000
170.07999897	143.75440000
170.11999897	132.97520000
170.15999897	118.59490000
170.19999897	102.42620000
170.23999897	89.84650000
170.27999897	71.87719000
170.31999896	52.10730000
170.35999896	35.93859000
170.39999896	25.15336000
170.43999896	14.37422000
170.47999896	3.58897700
170.51999896	-7.18405700
170.55999896	-16.16870000
170.59999896	-23.35887000
170.63999896	-32.34352000
170.67999896	-43.12265000
170.71999896	-52.10730000
170.75999896	-59.29746000
170.79999896	-64.68703000
170.83999896	-66.48762000
170.87999896	-71.87719000
170.91999896	-73.67168000
170.95999896	-79.06125000
170.99999896	-82.65633000
171.03999896	-88.04590000
171.07999896	-95.23605000
171.11999896	-106.01520000
171.15999896	-113.20540000
171.19999896	-120.39550000
171.23999896	-125.78510000
171.27999896	-129.38020000
171.31999896	-131.17470000
171.35999896	-131.17470000
171.39999896	-127.57960000
171.43999896	-122.19000000
171.47999896	-116.80040000
171.51999896	-109.61030000
171.55999896	-98.83114000
171.59999896	-86.25141000
171.63999896	-73.67168000
171.67999896	-59.29746000
171.71999896	-44.92325000
171.75999896	-30.54292000
171.79999896	-16.16870000
171.83999896	-3.58897700
171.87999896	10.77914000
171.91999896	23.35887000
171.95999895	25.15336000
171.99999895	43.12265000
172.03999895	57.50298000
172.07999895	64.68703000
172.11999895	66.48762000
172.15999895	71.87719000
172.19999895	79.06125000
172.23999895	86.25141000
172.27999895	88.04590000
172.31999895	97.03055000
172.35999895	104.22070000
172.39999895	113.20540000
172.43999895	118.59490000
172.47999895	125.78510000
172.51999895	132.97520000
172.55999895	134.76970000
172.59999895	136.56420000
172.63999895	136.56420000
172.67999895	134.76970000
172.71999895	129.38020000
172.75999895	122.19000000
172.79999895	113.20540000
172.83999895	104.22070000
172.87999895	91.64098000
172.91999895	79.06125000
172.95999895	64.68703000
172.99999895	52.10730000
173.03999895	37.73308000
173.07999895	23.35887000
173.11999895	10.77914000
173.15999895	-1.79448800
173.19999895	-12.57363000
173.23999895	-23.35887000
173.27999895	-34.13800000
173.31999895	-43.12265000
173.35999895	-50.31281000
173.39999895	-57.50298000
173.43999895	-62.89254000
173.47999895	-68.28211000
173.51999895	-73.67168000
173.55999895	-79.06125000
173.59999894	-84.45692000
173.63999894	-91.64098000
173.67999894	-97.03055000
173.71999894	-102.42620000
173.75999894	-107.81580000
173.79999894	-115.00600000
173.83999894	-118.59490000
173.87999894	-122.19000000
173.91999894	-125.78510000
173.95999894	-125.78510000
173.99999894	-125.78510000
174.03999894	-123.99060000
174.07999894	-120.39550000
174.11999894	-115.00600000
174.15999894	-107.81580000
174.19999894	-97.03055000
174.23999894	-88.04590000
174.27999894	-75.47227000
174.31999894	-62.89254000
174.35999894	-50.31281000
174.39999894	-35.93859000
174.43999894	-23.35887000
174.47999894	-8.98464900
174.51999894	5.38956800
174.55999894	17.96930000
174.59999894	28.74844000
174.63999894	39.52757000
174.67999894	48.51222000
174.71999894	57.50298000
174.75999894	64.68703000
174.79999894	71.87719000
174.83999894	77.26676000
174.87999894	86.25141000
174.91999894	93.44157000
174.95999894	100.62560000
174.99999894	107.81580000
175.03999894	115.00600000
175.07999894	120.39550000
175.11999894	127.57960000
175.15999894	131.17470000
175.19999894	134.76970000
175.23999893	136.56420000
175.27999893	134.76970000
175.31999893	132.97520000
175.35999893	129.38020000
175.39999893	120.39550000
175.43999893	113.20540000
175.47999893	104.22070000
175.51999893	91.64098000
175.55999893	79.06125000
175.59999893	66.48762000
175.63999893	53.90789000
175.67999893	39.52757000
175.71999893	26.95395000
175.75999893	14.37422000
175.79999893	1.79448800
175.83999893	-8.98464900
175.87999893	-17.96930000
175.91999893	-28.74844000
175.95999893	-39.52757000
175.99999893	-43.12265000
176.03999893	-52.10730000
176.07999893	-61.09195000
176.11999893	-64.68703000
176.15999893	-73.67168000
176.19999893	-79.06125000
176.23999893	-86.25141000
176.27999893	-93.44157000
176.31999893	-97.03055000
176.35999893	-104.22070000
176.39999893	-109.61030000
176.43999893	-115.00600000
176.47999893	-118.59490000
176.51999893	-122.19000000
176.55999893	-125.78510000
176.59999893	-127.57960000
176.63999893	-127.57960000
176.67999893	-125.78510000
176.71999893	-122.19000000
176.75999893	-115.00600000
176.79999893	-107.81580000
176.83999893	-102.42620000
176.87999893	-91.64098000
176.91999892	-73.67168000
176.95999892	-61.09195000
176.99999892	-50.31281000
177.03999892	-37.73308000
177.07999892	-25.15336000
177.11999892	-10.77914000
177.15999892	1.79448800
177.19999892	14.37422000
177.23999892	25.15336000
177.27999892	35.93859000
177.31999892	44.92325000
177.35999892	53.90789000
177.39999892	61.09195000
177.43999892	68.28211000
177.47999892	75.47227000
177.51999892	82.65633000
177.55999892	91.64098000
177.59999892	97.03055000
177.63999892	106.01520000
177.67999892	113.20540000
177.71999892	120.39550000
177.75999892	125.78510000
177.79999892	129.38020000
177.83999892	134.76970000
177.87999892	136.56420000
177.91999892	136.56420000
177.95999892	134.76970000
177.99999892	129.38020000
178.03999892	125.78510000
178.07999892	116.80040000
178.11999892	106.01520000
178.15999892	95.23605000
178.19999892	82.65633000
178.23999892	70.07660000
178.27999892	55.70238000
178.31999892	41.32816000
178.35999892	28.74844000
178.39999892	16.16870000
178.43999892	3.58897700
178.47999892	-8.98464900
178.51999892	-19.76379000
178.55999891	-28.74844000
178.59999891	-35.93859000
178.63999891	-44.92325000
178.67999891	-52.10730000
178.71999891	-57.50298000
178.75999891	-64.68703000
178.79999891	-70.07660000
178.83999891	-77.26676000
178.87999891	-82.65633000
178.91999891	-88.04590000
178.95999891	-93.44157000
178.99999891	-100.62560000
179.03999891	-107.81580000
179.07999891	-113.20540000
179.11999891	-118.59490000
179.15999891	-122.19000000
179.19999891	-125.78510000
179.23999891	-127.57960000
179.27999891	-129.38020000
179.31999891	-127.57960000
179.35999891	-123.99060000
179.39999891	-118.59490000
179.43999891	-111.41090000
179.47999891	-102.42620000
179.51999891	-91.64098000
179.55999891	-79.06125000
179.59999891	-66.48762000
179.63999891	-55.70238000
179.67999891	-39.52757000
179.71999891	-26.95395000
179.75999891	-12.57363000
179.79999891	0.00000000
179.83999891	12.57363000
179.87999891	23.35887000
179.91999891	34.13800000
179.95999891	44.92325000
179.99999891	52.10730000
180.03999891	61.09195000
180.07999891	68.28211000
180.11999891	73.67168000
180.15999891	80.86184000
180.19999890	88.04590000
180.23999890	95.23605000
180.27999890	104.22070000
180.31999890	109.61030000
180.35999890	116.80040000
180.39999890	122.19000000
180.43999890	129.38020000
180.47999890	132.97520000
180.51999890	136.56420000
180.55999890	136.56420000
180.59999890	136.56420000
180.63999890	132.97520000
180.67999890	127.57960000
180.71999890	118.59490000
180.75999890	109.61030000
180.79999890	98.83114000
180.83999890	86.25141000
180.87999890	71.87719000
180.91999890	59.29746000
180.95999890	44.92325000
180.99999890	32.34352000
181.03999890	17.96930000
181.07999890	7.18405700
181.11999890	-5.38956800
181.15999890	-14.37422000
181.19999890	-26.95395000
181.23999890	-34.13800000
181.27999890	-43.12265000
181.31999890	-50.31281000
181.35999890	-57.50298000
181.39999890	-62.89254000
181.43999890	-68.28211000
181.47999890	-73.67168000
181.51999890	-80.86184000
181.55999890	-86.25141000
181.59999890	-93.44157000
181.63999890	-100.62560000
181.67999890	-104.22070000
181.71999890	-111.41090000
181.75999890	-115.00600000
181.79999890	-123.99060000
181.83999889	-131.17470000
181.87999889	-123.99060000
181.91999889	-122.19000000
181.95999889	-127.57960000
181.99999889	-125.78510000
182.03999889	-122.19000000
182.07999889	-111.41090000
182.11999889	-104.22070000
182.15999889	-107.81580000
182.19999889	-115.00600000
182.23999889	-107.81580000
182.27999889	-80.86184000
182.31999889	-48.51222000
182.35999889	-26.95395000
182.39999889	-7.18405700
182.43999889	28.74844000
182.47999889	61.09195000
182.51999889	79.06125000
182.55999889	70.07660000
182.59999889	57.50298000
182.63999889	55.70238000
182.67999889	61.09195000
182.71999889	59.29746000
182.75999889	52.10730000
182.79999889	53.90789000
182.83999889	68.28211000
182.87999889	86.25141000
182.91999889	95.23605000
182.95999889	97.03055000
182.99999889	104.22070000
183.03999889	115.00600000
183.07999889	122.19000000
183.11999889	127.57960000
183.15999889	127.57960000
183.19999889	127.57960000
183.23999889	129.38020000
183.27999889	129.38020000
183.31999889	127.57960000
183.35999889	122.19000000
183.39999889	116.80040000
183.43999889	111.41090000
183.47999888	104.22070000
183.51999888	93.44157000
183.55999888	79.06125000
183.59999888	57.50298000
183.63999888	39.52757000
183.67999888	23.35887000
183.71999888	5.38956800
183.75999888	-10.77914000
183.79999888	-26.95395000
183.83999888	-35.93859000
183.87999888	-39.52757000
183.91999888	-44.92325000
183.95999888	-50.31281000
183.99999888	-57.50298000
184.03999888	-61.09195000
184.07999888	-66.48762000
184.11999888	-73.67168000
184.15999888	-82.65633000
184.19999888	-89.84650000
184.23999888	-93.44157000
184.27999888	-97.03055000
184.31999888	-100.62560000
184.35999888	-104.22070000
184.39999888	-109.61030000
184.43999888	-111.41090000
184.47999888	-115.00600000
184.51999888	-118.59490000
184.55999888	-122.19000000
184.59999888	-125.78510000
184.63999888	-123.99060000
184.67999888	-123.99060000
184.71999888	-118.59490000
184.75999888	-111.41090000
184.79999888	-100.62560000
184.83999888	-89.84650000
184.87999888	-77.26676000
184.91999888	-64.68703000
184.95999888	-50.31281000
184.99999888	-35.93859000
185.03999888	-21.55827000
185.07999888	-7.18405700
185.11999887	5.38956800
185.15999887	19.76379000
185.19999887	28.74844000
185.23999887	41.32816000
185.27999887	50.31281000
185.31999887	57.50298000
185.35999887	66.48762000
185.39999887	73.67168000
185.43999887	80.86184000
185.47999887	89.84650000
185.51999887	97.03055000
185.55999887	104.22070000
185.59999887	109.61030000
185.63999887	115.00600000
185.67999887	120.39550000
185.71999887	123.99060000
185.75999887	127.57960000
185.79999887	131.17470000
185.83999887	134.76970000
185.87999887	132.97520000
185.91999887	132.97520000
185.95999887	129.38020000
185.99999887	122.19000000
186.03999887	113.20540000
186.07999887	104.22070000
186.11999887	93.44157000
186.15999887	79.06125000
186.19999887	64.68703000
186.23999887	52.10730000
186.27999887	37.73308000
186.31999887	26.95395000
186.35999887	14.37422000
186.39999887	1.79448800
186.43999887	-8.98464900
186.47999887	-21.55827000
186.51999887	-28.74844000
186.55999887	-37.73308000
186.59999887	-46.71774000
186.63999887	-53.90789000
186.67999887	-61.09195000
186.71999887	-68.28211000
186.75999886	-75.47227000
186.79999886	-80.86184000
186.83999886	-86.25141000
186.87999886	-93.44157000
186.91999886	-98.83114000
186.95999886	-104.22070000
186.99999886	-109.61030000
187.03999886	-115.00600000
187.07999886	-120.39550000
187.11999886	-123.99060000
187.15999886	-125.78510000
187.19999886	-127.57960000
187.23999886	-127.57960000
187.27999886	-123.99060000
187.31999886	-122.19000000
187.35999886	-115.00600000
187.39999886	-107.81580000
187.43999886	-98.83114000
187.47999886	-88.04590000
187.51999886	-75.47227000
187.55999886	-62.89254000
187.59999886	-50.31281000
187.63999886	-35.93859000
187.67999886	-23.35887000
187.71999886	-8.98464900
187.75999886	1.79448800
187.79999886	14.37422000
187.83999886	25.15336000
187.87999886	35.93859000
187.91999886	46.71774000
187.95999886	55.70238000
187.99999886	62.89254000
188.03999886	70.07660000
188.07999886	77.26676000
188.11999886	84.45692000
188.15999886	91.64098000
188.19999886	98.83114000
188.23999886	106.01520000
188.27999886	113.20540000
188.31999886	120.39550000
188.35999886	127.57960000
188.39999886	131.17470000
188.43999885	134.76970000
188.47999885	138.36480000
188.51999885	136.56420000
188.55999885	134.76970000
188.59999885	129.38020000
188.63999885	123.99060000
188.67999885	115.00600000
188.71999885	104.22070000
188.75999885	93.44157000
188.79999885	80.86184000
188.83999885	66.48762000
188.87999885	53.90789000
188.91999885	41.32816000
188.95999885	26.95395000
188.99999885	14.37422000
189.03999885	3.58897700
189.07999885	-7.18405700
189.11999885	-17.96930000
189.15999885	-28.74844000
189.19999885	-35.93859000
189.23999885	-44.92325000
189.27999885	-52.10730000
189.31999885	-59.29746000
189.35999885	-64.68703000
189.39999885	-68.28211000
189.43999885	-77.26676000
189.47999885	-84.45692000
189.51999885	-89.84650000
189.55999885	-97.03055000
189.59999885	-102.42620000
189.63999885	-109.61030000
189.67999885	-115.00600000
189.71999885	-118.59490000
189.75999885	-123.99060000
189.79999885	-127.57960000
189.83999885	-129.38020000
189.87999885	-129.38020000
189.91999885	-127.57960000
189.95999885	-122.19000000
189.99999885	-116.80040000
190.03999885	-109.61030000
190.07999884	-100.62560000
190.11999884	-89.84650000
190.15999884	-79.06125000
190.19999884	-64.68703000
190.23999884	-52.10730000
190.27999884	-37.73308000
190.31999884	-25.15336000
190.35999884	-10.77914000
190.39999884	1.79448800
190.43999884	12.57363000
190.47999884	25.15336000
190.51999884	35.93859000
190.55999884	44.92325000
190.59999884	52.10730000
190.63999884	61.09195000
190.67999884	68.28211000
190.71999884	73.67168000
190.75999884	80.86184000
190.79999884	89.84650000
190.83999884	93.44157000
190.87999884	104.22070000
190.91999884	111.41090000
190.95999884	118.59490000
190.99999884	125.78510000
191.03999884	129.38020000
191.07999884	134.76970000
191.11999884	136.56420000
191.15999884	136.56420000
191.19999884	134.76970000
191.23999884	132.97520000
191.27999884	125.78510000
191.31999884	118.59490000
191.35999884	109.61030000
191.39999884	98.83114000
191.43999884	84.45692000
191.47999884	71.87719000
191.51999884	57.50298000
191.55999884	44.92325000
191.59999884	25.15336000
191.63999884	14.37422000
191.67999884	7.18405700
191.71999883	-3.58897700
191.75999883	-17.96930000
191.79999883	-26.95395000
191.83999883	-35.93859000
191.87999883	-43.12265000
191.91999883	-52.10730000
191.95999883	-57.50298000
191.99999883	-62.89254000
192.03999883	-68.28211000
192.07999883	-77.26676000
192.11999883	-80.86184000
192.15999883	-86.25141000
192.19999883	-93.44157000
192.23999883	-100.62560000
192.27999883	-107.81580000
192.31999883	-111.41090000
192.35999883	-118.59490000
192.39999883	-122.19000000
192.43999883	-125.78510000
192.47999883	-129.38020000
192.51999883	-129.38020000
192.55999883	-127.57960000
192.59999883	-123.99060000
192.63999883	-120.39550000
192.67999883	-113.20540000
192.71999883	-104.22070000
192.75999883	-93.44157000
192.79999883	-80.86184000
192.83999883	-68.28211000
192.87999883	-55.70238000
192.91999883	-41.32816000
192.95999883	-26.95395000
192.99999883	-12.57363000
193.03999883	0.00000000
193.07999883	10.77914000
193.11999883	23.35887000
193.15999883	34.13800000
193.19999883	43.12265000
193.23999883	52.10730000
193.27999883	57.50298000
193.31999883	66.48762000
193.35999882	71.87719000
193.39999882	79.06125000
193.43999882	86.25141000
193.47999882	93.44157000
193.51999882	100.62560000
193.55999882	109.61030000
193.59999882	115.00600000
193.63999882	122.19000000
193.67999882	127.57960000
193.71999882	132.97520000
193.75999882	136.56420000
193.79999882	136.56420000
193.83999882	136.56420000
193.87999882	132.97520000
193.91999882	129.38020000
193.95999882	120.39550000
193.99999882	111.41090000
194.03999882	100.62560000
194.07999882	86.25141000
194.11999882	75.47227000
194.15999882	61.09195000
194.19999882	46.71774000
194.23999882	34.13800000
194.27999882	19.76379000
194.31999882	7.18405700
194.35999882	-3.58897700
194.39999882	-14.37422000
194.43999882	-25.15336000
194.47999882	-34.13800000
194.51999882	-43.12265000
194.55999882	-50.31281000
194.59999882	-55.70238000
194.63999882	-61.09195000
194.67999882	-68.28211000
194.71999882	-73.67168000
194.75999882	-79.06125000
194.79999882	-86.25141000
194.83999882	-93.44157000
194.87999882	-98.83114000
194.91999882	-104.22070000
194.95999882	-109.61030000
194.99999881	-115.00600000
195.03999881	-120.39550000
195.07999881	-123.99060000
195.11999881	-127.57960000
195.15999881	-129.38020000
195.19999881	-127.57960000
195.23999881	-125.78510000
195.27999881	-120.39550000
195.31999881	-115.00600000
195.35999881	-106.01520000
195.39999881	-97.03055000
195.43999881	-86.25141000
195.47999881	-71.87719000
195.51999881	-59.29746000
195.55999881	-44.92325000
195.59999881	-32.34352000
195.63999881	-16.16870000
195.67999881	-3.58897700
195.71999881	7.18405700
195.75999881	19.76379000
195.79999881	30.54292000
195.83999881	43.12265000
195.87999881	50.31281000
195.91999881	57.50298000
195.95999881	66.48762000
195.99999881	71.87719000
196.03999881	77.26676000
196.07999881	84.45692000
196.11999881	91.64098000
196.15999881	100.62560000
196.19999881	106.01520000
196.23999881	115.00600000
196.27999881	120.39550000
196.31999881	127.57960000
196.35999881	131.17470000
196.39999881	134.76970000
196.43999881	136.56420000
196.47999881	136.56420000
196.51999881	134.76970000
196.55999881	120.39550000
196.59999881	120.39550000
196.63999880	116.80040000
196.67999880	106.01520000
196.71999880	89.84650000
196.75999880	75.47227000
196.79999880	64.68703000
196.83999880	52.10730000
196.87999880	35.93859000
196.91999880	23.35887000
196.95999880	12.57363000
196.99999880	0.00000000
197.03999880	-12.57363000
197.07999880	-21.55827000
197.11999880	-30.54292000
197.15999880	-41.32816000
197.19999880	-48.51222000
197.23999880	-53.90789000
197.27999880	-61.09195000
197.31999880	-68.28211000
197.35999880	-73.67168000
197.39999880	-79.06125000
197.43999880	-86.25141000
197.47999880	-91.64098000
197.51999880	-97.03055000
197.55999880	-102.42620000
197.59999880	-109.61030000
197.63999880	-115.00600000
197.67999880	-120.39550000
197.71999880	-122.19000000
197.75999880	-125.78510000
197.79999880	-125.78510000
197.83999880	-125.78510000
197.87999880	-123.99060000
197.91999880	-120.39550000
197.95999880	-115.00600000
197.99999880	-107.81580000
198.03999880	-98.83114000
198.07999880	-88.04590000
198.11999880	-73.67168000
198.15999880	-62.89254000
198.19999880	-50.31281000
198.23999880	-35.93859000
198.27999879	-21.55827000
198.31999879	-8.98464900
198.35999879	3.58897700
198.39999879	16.16870000
198.43999879	28.74844000
198.47999879	37.73308000
198.51999879	48.51222000
198.55999879	55.70238000
198.59999879	64.68703000
198.63999879	71.87719000
198.67999879	77.26676000
198.71999879	84.45692000
198.75999879	91.64098000
198.79999879	98.83114000
198.83999879	107.81580000
198.87999879	113.20540000
198.91999879	120.39550000
198.95999879	127.57960000
198.99999879	131.17470000
199.03999879	134.76970000
199.07999879	136.56420000
199.11999879	134.76970000
199.15999879	132.97520000
199.19999879	129.38020000
199.23999879	122.19000000
199.27999879	113.20540000
199.31999879	104.22070000
199.35999879	93.44157000
199.39999879	80.86184000
199.43999879	66.48762000
199.47999879	53.90789000
199.51999879	41.32816000
199.55999879	26.95395000
199.59999879	14.37422000
199.63999879	1.79448800
199.67999879	-8.98464900
199.71999879	-19.76379000
199.75999879	-28.74844000
199.79999879	-37.73308000
199.83999879	-44.92325000
199.87999879	-52.10730000
199.91999878	-59.29746000
199.95999878	-66.48762000
199.99999878	-71.87719000
200.03999878	-79.06125000
200.07999878	-84.45692000
200.11999878	-91.64098000
