Time	Channel A
(us)	(mV)

0.00000000	5.38956800
0.04000000	21.55827000
0.08000000	41.32816000
0.12000000	61.09195000
0.16000000	82.65633000
0.20000000	104.22070000
0.24000000	123.99060000
0.28000000	138.36480000
0.32000000	152.73900000
0.36000000	150.94450000
0.40000000	141.95990000
0.44000000	127.57960000
0.48000000	120.39550000
0.52000000	118.59490000
0.56000000	113.20540000
0.60000000	106.01520000
0.64000000	102.42620000
0.68000000	98.83114000
0.72000000	95.23605000
0.76000000	93.44157000
0.80000000	93.44157000
0.83999999	91.64098000
0.87999999	86.25141000
0.91999999	79.06125000
0.95999999	64.68703000
0.99999999	43.12265000
1.03999999	14.37422000
1.07999999	-14.37422000
1.11999999	-61.09195000
1.15999999	-97.03055000
1.19999999	-115.00600000
1.23999999	-138.36480000
1.27999999	-158.12860000
1.31999999	-161.72370000
1.35999999	-131.17470000
1.39999999	-93.44157000
1.43999999	-59.29746000
1.47999999	-50.31281000
1.51999999	-39.52757000
1.55999999	-39.52757000
1.59999999	-50.31281000
1.63999999	-68.28211000
1.67999999	-79.06125000
1.71999999	-88.04590000
1.75999999	-95.23605000
1.79999999	-102.42620000
1.83999999	-104.22070000
1.87999999	-107.81580000
1.91999999	-102.42620000
1.95999999	-100.62560000
1.99999999	-88.04590000
2.03999999	-73.67168000
2.07999999	-64.68703000
2.11999999	-53.90789000
2.15999999	-44.92325000
2.19999999	-39.52757000
2.23999999	-35.93859000
2.27999999	-28.74844000
2.31999999	-16.16870000
2.35999999	-1.79448800
2.39999999	14.37422000
2.43999999	32.34352000
2.47999998	52.10730000
2.51999998	71.87719000
2.55999998	91.64098000
2.59999998	107.81580000
2.63999998	122.19000000
2.67999998	136.56420000
2.71999998	136.56420000
2.75999998	140.15930000
2.79999998	131.17470000
2.83999998	116.80040000
2.87999998	109.61030000
2.91999998	109.61030000
2.95999998	109.61030000
2.99999998	106.01520000
3.03999998	100.62560000
3.07999998	98.83114000
3.11999998	98.83114000
3.15999998	97.03055000
3.19999998	93.44157000
3.23999998	93.44157000
3.27999998	91.64098000
3.31999998	84.45692000
3.35999998	71.87719000
3.39999998	53.90789000
3.43999998	28.74844000
3.47999998	0.00000000
3.51999998	-32.34352000
3.55999998	-62.89254000
3.59999998	-93.44157000
3.63999998	-122.19000000
3.67999998	-140.15930000
3.71999998	-145.54890000
3.75999998	-138.36480000
3.79999998	-116.80040000
3.83999998	-98.83114000
3.87999998	-86.25141000
3.91999998	-75.47227000
3.95999998	-70.07660000
3.99999998	-70.07660000
4.03999998	-68.28211000
4.07999998	-71.87719000
4.11999997	-71.87719000
4.15999997	-75.47227000
4.19999997	-77.26676000
4.23999997	-82.65633000
4.27999997	-86.25141000
4.31999997	-88.04590000
4.35999997	-86.25141000
4.39999997	-75.47227000
4.43999997	-66.48762000
4.47999997	-53.90789000
4.51999997	-44.92325000
4.55999997	-39.52757000
4.59999997	-35.93859000
4.63999997	-34.13800000
4.67999997	-30.54292000
4.71999997	-23.35887000
4.75999997	-8.98464900
4.79999997	7.18405700
4.83999997	26.95395000
4.87999997	46.71774000
4.91999997	70.07660000
4.95999997	89.84650000
4.99999997	111.41090000
5.03999997	129.38020000
5.07999997	141.95990000
5.11999997	150.94450000
5.15999997	143.75440000
5.19999997	134.76970000
5.23999997	120.39550000
5.27999997	115.00600000
5.31999997	115.00600000
5.35999997	107.81580000
5.39999997	102.42620000
5.43999997	100.62560000
5.47999997	98.83114000
5.51999997	97.03055000
5.55999997	97.03055000
5.59999997	95.23605000
5.63999997	93.44157000
5.67999997	89.84650000
5.71999997	82.65633000
5.75999996	70.07660000
5.79999996	50.31281000
5.83999996	25.15336000
5.87999996	0.00000000
5.91999996	-28.74844000
5.95999996	-59.29746000
5.99999996	-91.64098000
6.03999996	-115.00600000
6.07999996	-136.56420000
6.11999996	-149.14400000
6.15999996	-147.34950000
6.19999996	-127.57960000
6.23999996	-107.81580000
6.27999996	-82.65633000
6.31999996	-79.06125000
6.35999996	-75.47227000
6.39999996	-75.47227000
6.43999996	-71.87719000
6.47999996	-79.06125000
6.51999996	-80.86184000
6.55999996	-82.65633000
6.59999996	-82.65633000
6.63999996	-89.84650000
6.67999996	-89.84650000
6.71999996	-93.44157000
6.75999996	-88.04590000
6.79999996	-80.86184000
6.83999996	-68.28211000
6.87999996	-55.70238000
6.91999996	-44.92325000
6.95999996	-39.52757000
6.99999996	-32.34352000
7.03999996	-28.74844000
7.07999996	-23.35887000
7.11999996	-14.37422000
7.15999996	0.00000000
7.19999996	14.37422000
7.23999996	28.74844000
7.27999996	46.71774000
7.31999996	62.89254000
7.35999996	82.65633000
7.39999996	100.62560000
7.43999995	118.59490000
7.47999995	132.97520000
7.51999995	141.95990000
7.55999995	143.75440000
7.59999995	138.36480000
7.63999995	123.99060000
7.67999995	115.00600000
7.71999995	109.61030000
7.75999995	107.81580000
7.79999995	106.01520000
7.83999995	104.22070000
7.87999995	98.83114000
7.91999995	98.83114000
7.95999995	97.03055000
7.99999995	93.44157000
8.03999995	93.44157000
8.07999995	88.04590000
8.11999995	79.06125000
8.15999995	68.28211000
8.19999995	50.31281000
8.23999995	23.35887000
8.27999995	-3.58897700
8.31999995	-30.54292000
8.35999995	-57.50298000
8.39999995	-86.25141000
8.43999995	-113.20540000
8.47999995	-131.17470000
8.51999995	-150.94450000
8.55999995	-143.75440000
8.59999995	-129.38020000
8.63999995	-109.61030000
8.67999995	-95.23605000
8.71999995	-86.25141000
8.75999995	-79.06125000
8.79999995	-75.47227000
8.83999995	-75.47227000
8.87999995	-75.47227000
8.91999995	-75.47227000
8.95999995	-75.47227000
8.99999995	-80.86184000
9.03999995	-84.45692000
9.07999994	-88.04590000
9.11999994	-91.64098000
9.15999994	-88.04590000
9.19999994	-80.86184000
9.23999994	-70.07660000
9.27999994	-61.09195000
9.31999994	-50.31281000
9.35999994	-43.12265000
9.39999994	-37.73308000
9.43999994	-34.13800000
9.47999994	-28.74844000
9.51999994	-21.55827000
9.55999994	-10.77914000
9.59999994	3.58897700
9.63999994	19.76379000
9.67999994	35.93859000
9.71999994	55.70238000
9.75999994	77.26676000
9.79999994	97.03055000
9.83999994	115.00600000
9.87999994	132.97520000
9.91999994	147.34950000
9.95999994	147.34950000
9.99999994	140.15930000
10.03999994	129.38020000
10.07999994	118.59490000
10.11999994	116.80040000
10.15999994	113.20540000
10.19999994	106.01520000
10.23999994	102.42620000
10.27999994	100.62560000
10.31999994	97.03055000
10.35999994	95.23605000
10.39999994	93.44157000
10.43999994	93.44157000
10.47999994	89.84650000
10.51999994	84.45692000
10.55999994	71.87719000
10.59999994	55.70238000
10.63999994	30.54292000
10.67999994	3.58897700
10.71999993	-23.35887000
10.75999993	-53.90789000
10.79999993	-82.65633000
10.83999993	-109.61030000
10.87999993	-131.17470000
10.91999993	-149.14400000
10.95999993	-158.12860000
10.99999993	-161.72370000
11.03999993	-122.19000000
11.07999993	-102.42620000
11.11999993	-89.84650000
11.15999993	-88.04590000
11.19999993	-86.25141000
11.23999993	-79.06125000
11.27999993	-80.86184000
11.31999993	-82.65633000
11.35999993	-82.65633000
11.39999993	-84.45692000
11.43999993	-88.04590000
11.47999993	-93.44157000
11.51999993	-93.44157000
11.55999993	-95.23605000
11.59999993	-91.64098000
11.63999993	-80.86184000
11.67999993	-66.48762000
11.71999993	-57.50298000
11.75999993	-50.31281000
11.79999993	-41.32816000
11.83999993	-34.13800000
11.87999993	-28.74844000
11.91999993	-23.35887000
11.95999993	-14.37422000
11.99999993	-1.79448800
12.03999993	12.57363000
12.07999993	25.15336000
12.11999993	41.32816000
12.15999993	59.29746000
12.19999993	77.26676000
12.23999993	97.03055000
12.27999993	116.80040000
12.31999993	131.17470000
12.35999992	143.75440000
12.39999992	145.54890000
12.43999992	138.36480000
12.47999992	127.57960000
12.51999992	118.59490000
12.55999992	115.00600000
12.59999992	111.41090000
12.63999992	106.01520000
12.67999992	100.62560000
12.71999992	97.03055000
12.75999992	97.03055000
12.79999992	93.44157000
12.83999992	86.25141000
12.87999992	86.25141000
12.91999992	82.65633000
12.95999992	71.87719000
12.99999992	57.50298000
13.03999992	35.93859000
13.07999992	12.57363000
13.11999992	-16.16870000
13.15999992	-44.92325000
13.19999992	-71.87719000
13.23999992	-100.62560000
13.27999992	-125.78510000
13.31999992	-143.75440000
13.35999992	-152.73900000
13.39999992	-140.15930000
13.43999992	-125.78510000
13.47999992	-102.42620000
13.51999992	-89.84650000
13.55999992	-79.06125000
13.59999992	-77.26676000
13.63999992	-73.67168000
13.67999992	-77.26676000
13.71999992	-79.06125000
13.75999992	-79.06125000
13.79999992	-82.65633000
13.83999992	-86.25141000
13.87999992	-89.84650000
13.91999992	-93.44157000
13.95999992	-95.23605000
13.99999991	-91.64098000
14.03999991	-82.65633000
14.07999991	-71.87719000
14.11999991	-61.09195000
14.15999991	-52.10730000
14.19999991	-44.92325000
14.23999991	-43.12265000
14.27999991	-37.73308000
14.31999991	-35.93859000
14.35999991	-25.15336000
14.39999991	-14.37422000
14.43999991	-1.79448800
14.47999991	14.37422000
14.51999991	32.34352000
14.55999991	53.90789000
14.59999991	75.47227000
14.63999991	98.83114000
14.67999991	120.39550000
14.71999991	136.56420000
14.75999991	149.14400000
14.79999991	150.94450000
14.83999991	141.95990000
14.87999991	127.57960000
14.91999991	118.59490000
14.95999991	115.00600000
14.99999991	111.41090000
15.03999991	104.22070000
15.07999991	100.62560000
15.11999991	98.83114000
15.15999991	97.03055000
15.19999991	93.44157000
15.23999991	93.44157000
15.27999991	93.44157000
15.31999991	91.64098000
15.35999991	84.45692000
15.39999991	73.67168000
15.43999991	55.70238000
15.47999991	30.54292000
15.51999991	1.79448800
15.55999991	-25.15336000
15.59999991	-55.70238000
15.63999990	-86.25141000
15.67999990	-113.20540000
15.71999990	-132.97520000
15.75999990	-152.73900000
15.79999990	-143.75440000
15.83999990	-138.36480000
15.87999990	-106.01520000
15.91999990	-93.44157000
15.95999990	-77.26676000
15.99999990	-71.87719000
16.03999990	-71.87719000
16.07999990	-71.87719000
16.11999990	-71.87719000
16.15999990	-71.87719000
16.19999990	-73.67168000
16.23999990	-79.06125000
16.27999990	-82.65633000
16.31999990	-88.04590000
16.35999990	-89.84650000
16.39999990	-88.04590000
16.43999990	-82.65633000
16.47999990	-70.07660000
16.51999990	-61.09195000
16.55999990	-52.10730000
16.59999990	-44.92325000
16.63999990	-39.52757000
16.67999990	-37.73308000
16.71999990	-34.13800000
16.75999990	-28.74844000
16.79999990	-16.16870000
16.83999990	-5.38956800
16.87999990	8.98464900
16.91999990	28.74844000
16.95999990	50.31281000
16.99999990	70.07660000
17.03999990	93.44157000
17.07999990	116.80040000
17.11999990	134.76970000
17.15999990	145.54890000
17.19999990	154.53350000
17.23999990	143.75440000
17.27999989	129.38020000
17.31999989	120.39550000
17.35999989	118.59490000
17.39999989	113.20540000
17.43999989	107.81580000
17.47999989	102.42620000
17.51999989	98.83114000
17.55999989	98.83114000
17.59999989	97.03055000
17.63999989	98.83114000
17.67999989	93.44157000
17.71999989	89.84650000
17.75999989	86.25141000
17.79999989	79.06125000
17.83999989	62.89254000
17.87999989	35.93859000
17.91999989	8.98464900
17.95999989	-19.76379000
17.99999989	-46.71774000
18.03999989	-79.06125000
18.07999989	-107.81580000
18.11999989	-131.17470000
18.15999989	-147.34950000
18.19999989	-147.34950000
18.23999989	-134.76970000
18.27999989	-107.81580000
18.31999989	-88.04590000
18.35999989	-75.47227000
18.39999989	-71.87719000
18.43999989	-66.48762000
18.47999989	-68.28211000
18.51999989	-68.28211000
18.55999989	-70.07660000
18.59999989	-71.87719000
18.63999989	-77.26676000
18.67999989	-82.65633000
18.71999989	-86.25141000
18.75999989	-89.84650000
18.79999989	-89.84650000
18.83999989	-86.25141000
18.87999989	-73.67168000
18.91999989	-61.09195000
18.95999988	-52.10730000
18.99999988	-44.92325000
19.03999988	-37.73308000
19.07999988	-30.54292000
19.11999988	-26.95395000
19.15999988	-19.76379000
19.19999988	-8.98464900
19.23999988	5.38956800
19.27999988	19.76379000
19.31999988	35.93859000
19.35999988	53.90789000
19.39999988	75.47227000
19.43999988	97.03055000
19.47999988	115.00600000
19.51999988	132.97520000
19.55999988	143.75440000
19.59999988	145.54890000
19.63999988	140.15930000
19.67999988	127.57960000
19.71999988	116.80040000
19.75999988	115.00600000
19.79999988	113.20540000
19.83999988	106.01520000
19.87999988	104.22070000
19.91999988	100.62560000
19.95999988	98.83114000
19.99999988	97.03055000
20.03999988	97.03055000
20.07999988	97.03055000
20.11999988	93.44157000
20.15999988	88.04590000
20.19999988	79.06125000
20.23999988	62.89254000
20.27999988	41.32816000
20.31999988	16.16870000
20.35999988	-12.57363000
20.39999988	-41.32816000
20.43999988	-71.87719000
20.47999988	-100.62560000
20.51999988	-125.78510000
20.55999988	-143.75440000
20.59999987	-147.34950000
20.63999987	-138.36480000
20.67999987	-116.80040000
20.71999987	-100.62560000
20.75999987	-88.04590000
20.79999987	-88.04590000
20.83999987	-86.25141000
20.87999987	-70.07660000
20.91999987	-64.68703000
20.95999987	-71.87719000
20.99999987	-73.67168000
21.03999987	-80.86184000
21.07999987	-77.26676000
21.11999987	-82.65633000
21.15999987	-88.04590000
21.19999987	-88.04590000
21.23999987	-82.65633000
21.27999987	-73.67168000
21.31999987	-64.68703000
21.35999987	-55.70238000
21.39999987	-46.71774000
21.43999987	-46.71774000
21.47999987	-37.73308000
21.51999987	-34.13800000
21.55999987	-21.55827000
21.59999987	-10.77914000
21.63999987	3.58897700
21.67999987	19.76379000
21.71999987	35.93859000
21.75999987	55.70238000
21.79999987	73.67168000
21.83999987	93.44157000
21.87999987	111.41090000
21.91999987	129.38020000
21.95999987	138.36480000
21.99999987	147.34950000
22.03999987	143.75440000
22.07999987	129.38020000
22.11999987	120.39550000
22.15999987	115.00600000
22.19999987	115.00600000
22.23999986	107.81580000
22.27999986	106.01520000
22.31999986	102.42620000
22.35999986	98.83114000
22.39999986	98.83114000
22.43999986	95.23605000
22.47999986	95.23605000
22.51999986	93.44157000
22.55999986	86.25141000
22.59999986	77.26676000
22.63999986	61.09195000
22.67999986	39.52757000
22.71999986	14.37422000
22.75999986	-14.37422000
22.79999986	-41.32816000
22.83999986	-71.87719000
22.87999986	-95.23605000
22.91999986	-122.19000000
22.95999986	-140.15930000
22.99999986	-150.94450000
23.03999986	-140.15930000
23.07999986	-127.57960000
23.11999986	-100.62560000
23.15999986	-88.04590000
23.19999986	-73.67168000
23.23999986	-71.87719000
23.27999986	-70.07660000
23.31999986	-68.28211000
23.35999986	-70.07660000
23.39999986	-71.87719000
23.43999986	-73.67168000
23.47999986	-79.06125000
23.51999986	-82.65633000
23.55999986	-86.25141000
23.59999986	-91.64098000
23.63999986	-88.04590000
23.67999986	-80.86184000
23.71999986	-66.48762000
23.75999986	-57.50298000
23.79999986	-46.71774000
23.83999986	-41.32816000
23.87999985	-35.93859000
23.91999985	-32.34352000
23.95999985	-26.95395000
23.99999985	-16.16870000
24.03999985	-3.58897700
24.07999985	12.57363000
24.11999985	28.74844000
24.15999985	48.51222000
24.19999985	68.28211000
24.23999985	89.84650000
24.27999985	111.41090000
24.31999985	129.38020000
24.35999985	143.75440000
24.39999985	152.73900000
24.43999985	145.54890000
24.47999985	134.76970000
24.51999985	122.19000000
24.55999985	120.39550000
24.59999985	115.00600000
24.63999985	107.81580000
24.67999985	104.22070000
24.71999985	100.62560000
24.75999985	97.03055000
24.79999985	93.44157000
24.83999985	93.44157000
24.87999985	93.44157000
24.91999985	91.64098000
24.95999985	88.04590000
24.99999985	79.06125000
25.03999985	64.68703000
25.07999985	43.12265000
25.11999985	16.16870000
25.15999985	-12.57363000
25.19999985	-41.32816000
25.23999985	-71.87719000
25.27999985	-100.62560000
25.31999985	-123.99060000
25.35999985	-143.75440000
25.39999985	-150.94450000
25.43999985	-140.15930000
25.47999985	-118.59490000
25.51999984	-98.83114000
25.55999984	-88.04590000
25.59999984	-80.86184000
25.63999984	-73.67168000
25.67999984	-75.47227000
25.71999984	-73.67168000
25.75999984	-73.67168000
25.79999984	-71.87719000
25.83999984	-73.67168000
25.87999984	-80.86184000
25.91999984	-86.25141000
25.95999984	-89.84650000
25.99999984	-91.64098000
26.03999984	-86.25141000
26.07999984	-75.47227000
26.11999984	-64.68703000
26.15999984	-53.90789000
26.19999984	-44.92325000
26.23999984	-37.73308000
26.27999984	-32.34352000
26.31999984	-28.74844000
26.35999984	-21.55827000
26.39999984	-12.57363000
26.43999984	0.00000000
26.47999984	12.57363000
26.51999984	26.95395000
26.55999984	43.12265000
26.59999984	62.89254000
26.63999984	77.26676000
26.67999984	93.44157000
26.71999984	109.61030000
26.75999984	120.39550000
26.79999984	123.99060000
26.83999984	129.38020000
26.87999984	140.15930000
26.91999984	138.36480000
26.95999984	138.36480000
26.99999984	140.15930000
27.03999984	143.75440000
27.07999984	138.36480000
27.11999984	127.57960000
27.15999983	109.61030000
27.19999983	93.44157000
27.23999983	86.25141000
27.27999983	86.25141000
27.31999983	79.06125000
27.35999983	70.07660000
27.39999983	62.89254000
27.43999983	55.70238000
27.47999983	39.52757000
27.51999983	12.57363000
27.55999983	-17.96930000
27.59999983	-44.92325000
27.63999983	-73.67168000
27.67999983	-100.62560000
27.71999983	-123.99060000
27.75999983	-143.75440000
27.79999983	-141.95990000
27.83999983	-141.95990000
27.87999983	-120.39550000
27.91999983	-107.81580000
27.95999983	-82.65633000
27.99999983	-71.87719000
28.03999983	-64.68703000
28.07999983	-64.68703000
28.11999983	-64.68703000
28.15999983	-68.28211000
28.19999983	-73.67168000
28.23999983	-82.65633000
28.27999983	-88.04590000
28.31999983	-91.64098000
28.35999983	-97.03055000
28.39999983	-97.03055000
28.43999983	-89.84650000
28.47999983	-79.06125000
28.51999983	-68.28211000
28.55999983	-57.50298000
28.59999983	-50.31281000
28.63999983	-43.12265000
28.67999983	-37.73308000
28.71999983	-32.34352000
28.75999983	-26.95395000
28.79999982	-14.37422000
28.83999982	-1.79448800
28.87999982	16.16870000
28.91999982	34.13800000
28.95999982	53.90789000
28.99999982	71.87719000
29.03999982	91.64098000
29.07999982	109.61030000
29.11999982	125.78510000
29.15999982	136.56420000
29.19999982	143.75440000
29.23999982	136.56420000
29.27999982	127.57960000
29.31999982	116.80040000
29.35999982	115.00600000
29.39999982	111.41090000
29.43999982	107.81580000
29.47999982	104.22070000
29.51999982	102.42620000
29.55999982	100.62560000
29.59999982	98.83114000
29.63999982	97.03055000
29.67999982	95.23605000
29.71999982	97.03055000
29.75999982	89.84650000
29.79999982	80.86184000
29.83999982	68.28211000
29.87999982	46.71774000
29.91999982	21.55827000
29.95999982	-7.18405700
29.99999982	-34.13800000
30.03999982	-62.89254000
30.07999982	-93.44157000
30.11999982	-115.00600000
30.15999982	-136.56420000
30.19999982	-138.36480000
30.23999982	-131.17470000
30.27999982	-109.61030000
30.31999982	-97.03055000
30.35999982	-86.25141000
30.39999982	-77.26676000
30.43999982	-71.87719000
30.47999981	-70.07660000
30.51999981	-71.87719000
30.55999981	-70.07660000
30.59999981	-68.28211000
30.63999981	-73.67168000
30.67999981	-89.84650000
30.71999981	-86.25141000
30.75999981	-79.06125000
30.79999981	-82.65633000
30.83999981	-84.45692000
30.87999981	-77.26676000
30.91999981	-64.68703000
30.95999981	-52.10730000
30.99999981	-48.51222000
31.03999981	-43.12265000
31.07999981	-37.73308000
31.11999981	-35.93859000
31.15999981	-30.54292000
31.19999981	-17.96930000
31.23999981	-3.58897700
31.27999981	10.77914000
31.31999981	26.95395000
31.35999981	50.31281000
31.39999981	71.87719000
31.43999981	91.64098000
31.47999981	111.41090000
31.51999981	129.38020000
31.55999981	140.15930000
31.59999981	149.14400000
31.63999981	140.15930000
31.67999981	134.76970000
31.71999981	122.19000000
31.75999981	118.59490000
31.79999981	113.20540000
31.83999981	111.41090000
31.87999981	106.01520000
31.91999981	102.42620000
31.95999981	100.62560000
31.99999981	98.83114000
32.03999981	98.83114000
32.07999981	98.83114000
32.11999980	97.03055000
32.15999980	91.64098000
32.19999980	84.45692000
32.23999980	71.87719000
32.27999980	53.90789000
32.31999980	30.54292000
32.35999980	3.58897700
32.39999980	-23.35887000
32.43999980	-52.10730000
32.47999980	-80.86184000
32.51999980	-109.61030000
32.55999980	-134.76970000
32.59999980	-150.94450000
32.63999980	-152.73900000
32.67999980	-140.15930000
32.71999980	-116.80040000
32.75999980	-100.62560000
32.79999980	-93.44157000
32.83999980	-86.25141000
32.87999980	-84.45692000
32.91999980	-79.06125000
32.95999980	-80.86184000
32.99999980	-79.06125000
33.03999980	-80.86184000
33.07999980	-84.45692000
33.11999980	-86.25141000
33.15999980	-89.84650000
33.19999980	-93.44157000
33.23999980	-93.44157000
33.27999980	-86.25141000
33.31999980	-73.67168000
33.35999980	-62.89254000
33.39999980	-52.10730000
33.43999980	-43.12265000
33.47999980	-37.73308000
33.51999980	-28.74844000
33.55999980	-21.55827000
33.59999980	-10.77914000
33.63999980	0.00000000
33.67999980	14.37422000
33.71999980	26.95395000
33.75999979	41.32816000
33.79999979	57.50298000
33.83999979	73.67168000
33.87999979	91.64098000
33.91999979	107.81580000
33.95999979	123.99060000
33.99999979	134.76970000
34.03999979	140.15930000
34.07999979	136.56420000
34.11999979	129.38020000
34.15999979	115.00600000
34.19999979	113.20540000
34.23999979	111.41090000
34.27999979	107.81580000
34.31999979	104.22070000
34.35999979	102.42620000
34.39999979	98.83114000
34.43999979	95.23605000
34.47999979	93.44157000
34.51999979	91.64098000
34.55999979	86.25141000
34.59999979	80.86184000
34.63999979	70.07660000
34.67999979	53.90789000
34.71999979	32.34352000
34.75999979	7.18405700
34.79999979	-21.55827000
34.83999979	-48.51222000
34.87999979	-75.47227000
34.91999979	-102.42620000
34.95999979	-127.57960000
34.99999979	-143.75440000
35.03999979	-150.94450000
35.07999979	-138.36480000
35.11999979	-122.19000000
35.15999979	-97.03055000
35.19999979	-91.64098000
35.23999979	-84.45692000
35.27999979	-79.06125000
35.31999979	-75.47227000
35.35999979	-77.26676000
35.39999978	-79.06125000
35.43999978	-77.26676000
35.47999978	-79.06125000
35.51999978	-88.04590000
35.55999978	-91.64098000
35.59999978	-95.23605000
35.63999978	-91.64098000
35.67999978	-88.04590000
35.71999978	-77.26676000
35.75999978	-68.28211000
35.79999978	-57.50298000
35.83999978	-50.31281000
35.87999978	-43.12265000
35.91999978	-35.93859000
35.95999978	-32.34352000
35.99999978	-25.15336000
36.03999978	-16.16870000
36.07999978	-5.38956800
36.11999978	7.18405700
36.15999978	23.35887000
36.19999978	43.12265000
36.23999978	62.89254000
36.27999978	84.45692000
36.31999978	106.01520000
36.35999978	125.78510000
36.39999978	138.36480000
36.43999978	150.94450000
36.47999978	147.34950000
36.51999978	136.56420000
36.55999978	122.19000000
36.59999978	116.80040000
36.63999978	115.00600000
36.67999978	109.61030000
36.71999978	104.22070000
36.75999978	100.62560000
36.79999978	98.83114000
36.83999978	95.23605000
36.87999978	93.44157000
36.91999978	93.44157000
36.95999978	93.44157000
36.99999978	88.04590000
37.03999977	79.06125000
37.07999977	66.48762000
37.11999977	44.92325000
37.15999977	19.76379000
37.19999977	-8.98464900
37.23999977	-37.73308000
37.27999977	-66.48762000
37.31999977	-97.03055000
37.35999977	-123.99060000
37.39999977	-143.75440000
37.43999977	-154.53350000
37.47999977	-143.75440000
37.51999977	-138.36480000
37.55999977	-109.61030000
37.59999977	-91.64098000
37.63999977	-77.26676000
37.67999977	-71.87719000
37.71999977	-73.67168000
37.75999977	-71.87719000
37.79999977	-73.67168000
37.83999977	-71.87719000
37.87999977	-79.06125000
37.91999977	-82.65633000
37.95999977	-88.04590000
37.99999977	-93.44157000
38.03999977	-93.44157000
38.07999977	-91.64098000
38.11999977	-84.45692000
38.15999977	-71.87719000
38.19999977	-61.09195000
38.23999977	-50.31281000
38.27999977	-43.12265000
38.31999977	-37.73308000
38.35999977	-32.34352000
38.39999977	-25.15336000
38.43999977	-17.96930000
38.47999977	-8.98464900
38.51999977	3.58897700
38.55999977	19.76379000
38.59999977	35.93859000
38.63999977	55.70238000
38.67999976	73.67168000
38.71999976	95.23605000
38.75999976	115.00600000
38.79999976	132.97520000
38.83999976	143.75440000
38.87999976	149.14400000
38.91999976	140.15930000
38.95999976	129.38020000
38.99999976	118.59490000
39.03999976	118.59490000
39.07999976	111.41090000
39.11999976	106.01520000
39.15999976	102.42620000
39.19999976	98.83114000
39.23999976	95.23605000
39.27999976	93.44157000
39.31999976	91.64098000
39.35999976	91.64098000
39.39999976	86.25141000
39.43999976	79.06125000
39.47999976	68.28211000
39.51999976	50.31281000
39.55999976	25.15336000
39.59999976	-1.79448800
39.63999976	-30.54292000
39.67999976	-59.29746000
39.71999976	-89.84650000
39.75999976	-116.80040000
39.79999976	-138.36480000
39.83999976	-149.14400000
39.87999976	-152.73900000
39.91999976	-123.99060000
39.95999976	-102.42620000
39.99999976	-80.86184000
40.03999976	-80.86184000
40.07999976	-75.47227000
40.11999976	-68.28211000
40.15999976	-71.87719000
40.19999976	-73.67168000
40.23999976	-75.47227000
40.27999976	-77.26676000
40.31999975	-80.86184000
40.35999975	-88.04590000
40.39999975	-91.64098000
40.43999975	-89.84650000
40.47999975	-89.84650000
40.51999975	-93.44157000
40.55999975	-75.47227000
40.59999975	-52.10730000
40.63999975	-43.12265000
40.67999975	-44.92325000
40.71999975	-39.52757000
40.75999975	-35.93859000
40.79999975	-26.95395000
40.83999975	-23.35887000
40.87999975	-8.98464900
40.91999975	3.58897700
40.95999975	19.76379000
40.99999975	35.93859000
41.03999975	57.50298000
41.07999975	79.06125000
41.11999975	97.03055000
41.15999975	116.80040000
41.19999975	136.56420000
41.23999975	147.34950000
41.27999975	147.34950000
41.31999975	138.36480000
41.35999975	129.38020000
41.39999975	120.39550000
41.43999975	115.00600000
41.47999975	113.20540000
41.51999975	107.81580000
41.55999975	104.22070000
41.59999975	100.62560000
41.63999975	97.03055000
41.67999975	93.44157000
41.71999975	93.44157000
41.75999975	93.44157000
41.79999975	91.64098000
41.83999975	84.45692000
41.87999975	71.87719000
41.91999975	55.70238000
41.95999974	30.54292000
41.99999974	5.38956800
42.03999974	-23.35887000
42.07999974	-52.10730000
42.11999974	-80.86184000
42.15999974	-107.81580000
42.19999974	-129.38020000
42.23999974	-145.54890000
42.27999974	-138.36480000
42.31999974	-118.59490000
42.35999974	-89.84650000
42.39999974	-80.86184000
42.43999974	-73.67168000
42.47999974	-71.87719000
42.51999974	-70.07660000
42.55999974	-68.28211000
42.59999974	-70.07660000
42.63999974	-71.87719000
42.67999974	-75.47227000
42.71999974	-79.06125000
42.75999974	-86.25141000
42.79999974	-86.25141000
42.83999974	-93.44157000
42.87999974	-93.44157000
42.91999974	-84.45692000
42.95999974	-68.28211000
42.99999974	-57.50298000
43.03999974	-48.51222000
43.07999974	-41.32816000
43.11999974	-34.13800000
43.15999974	-28.74844000
43.19999974	-25.15336000
43.23999974	-16.16870000
43.27999974	-5.38956800
43.31999974	8.98464900
43.35999974	23.35887000
43.39999974	41.32816000
43.43999974	61.09195000
43.47999974	79.06125000
43.51999974	98.83114000
43.55999974	115.00600000
43.59999974	132.97520000
43.63999973	140.15930000
43.67999973	147.34950000
43.71999973	140.15930000
43.75999973	127.57960000
43.79999973	118.59490000
43.83999973	115.00600000
43.87999973	109.61030000
43.91999973	106.01520000
43.95999973	104.22070000
43.99999973	98.83114000
44.03999973	98.83114000
44.07999973	97.03055000
44.11999973	97.03055000
44.15999973	97.03055000
44.19999973	93.44157000
44.23999973	86.25141000
44.27999973	77.26676000
44.31999973	61.09195000
44.35999973	37.73308000
44.39999973	12.57363000
44.43999973	-16.16870000
44.47999973	-44.92325000
44.51999973	-75.47227000
44.55999973	-104.22070000
44.59999973	-131.17470000
44.63999973	-147.34950000
44.67999973	-158.12860000
44.71999973	-141.95990000
44.75999973	-115.00600000
44.79999973	-86.25141000
44.83999973	-75.47227000
44.87999973	-73.67168000
44.91999973	-70.07660000
44.95999973	-68.28211000
44.99999973	-70.07660000
45.03999973	-73.67168000
45.07999973	-73.67168000
45.11999973	-75.47227000
45.15999973	-82.65633000
45.19999973	-88.04590000
45.23999973	-91.64098000
45.27999972	-91.64098000
45.31999972	-86.25141000
45.35999972	-79.06125000
45.39999972	-64.68703000
45.43999972	-52.10730000
45.47999972	-41.32816000
45.51999972	-34.13800000
45.55999972	-26.95395000
45.59999972	-23.35887000
45.63999972	-14.37422000
45.67999972	-3.58897700
45.71999972	14.37422000
45.75999972	26.95395000
45.79999972	41.32816000
45.83999972	59.29746000
45.87999972	79.06125000
45.91999972	98.83114000
45.95999972	116.80040000
45.99999972	132.97520000
46.03999972	145.54890000
46.07999972	147.34950000
46.11999972	140.15930000
46.15999972	129.38020000
46.19999972	120.39550000
46.23999972	118.59490000
46.27999972	115.00600000
46.31999972	107.81580000
46.35999972	106.01520000
46.39999972	100.62560000
46.43999972	95.23605000
46.47999972	93.44157000
46.51999972	93.44157000
46.55999972	91.64098000
46.59999972	86.25141000
46.63999972	80.86184000
46.67999972	70.07660000
46.71999972	50.31281000
46.75999972	25.15336000
46.79999972	0.00000000
46.83999972	-28.74844000
46.87999972	-55.70238000
46.91999971	-86.25141000
46.95999971	-111.41090000
46.99999971	-136.56420000
47.03999971	-152.73900000
47.07999971	-154.53350000
47.11999971	-143.75440000
47.15999971	-120.39550000
47.19999971	-97.03055000
47.23999971	-89.84650000
47.27999971	-88.04590000
47.31999971	-80.86184000
47.35999971	-75.47227000
47.39999971	-75.47227000
47.43999971	-79.06125000
47.47999971	-80.86184000
47.51999971	-84.45692000
47.55999971	-86.25141000
47.59999971	-91.64098000
47.63999971	-95.23605000
47.67999971	-93.44157000
47.71999971	-86.25141000
47.75999971	-75.47227000
47.79999971	-62.89254000
47.83999971	-52.10730000
47.87999971	-43.12265000
47.91999971	-35.93859000
47.95999971	-28.74844000
47.99999971	-21.55827000
48.03999971	-14.37422000
48.07999971	-3.58897700
48.11999971	10.77914000
48.15999971	23.35887000
48.19999971	37.73308000
48.23999971	53.90789000
48.27999971	71.87719000
48.31999971	88.04590000
48.35999971	106.01520000
48.39999971	123.99060000
48.43999971	136.56420000
48.47999971	145.54890000
48.51999971	143.75440000
48.55999970	132.97520000
48.59999970	122.19000000
48.63999970	118.59490000
48.67999970	118.59490000
48.71999970	123.99060000
48.75999970	138.36480000
48.79999970	131.17470000
48.83999970	100.62560000
48.87999970	89.84650000
48.91999970	86.25141000
48.95999970	73.67168000
48.99999970	44.92325000
49.03999970	26.95395000
49.07999970	26.95395000
49.11999970	28.74844000
49.15999970	17.96930000
49.19999970	-5.38956800
49.23999970	-32.34352000
49.27999970	-50.31281000
49.31999970	-66.48762000
49.35999970	-95.23605000
49.39999970	-129.38020000
49.43999970	-145.54890000
49.47999970	-154.53350000
49.51999970	-123.99060000
49.55999970	-111.41090000
49.59999970	-86.25141000
49.63999970	-84.45692000
49.67999970	-71.87719000
49.71999970	-70.07660000
49.75999970	-70.07660000
49.79999970	-77.26676000
49.83999970	-84.45692000
49.87999970	-86.25141000
49.91999970	-88.04590000
49.95999970	-98.83114000
49.99999970	-107.81580000
50.03999970	-109.61030000
50.07999970	-109.61030000
50.11999970	-100.62560000
50.15999970	-82.65633000
50.19999969	-66.48762000
50.23999969	-53.90789000
50.27999969	-39.52757000
50.31999969	-28.74844000
50.35999969	-35.93859000
50.39999969	-32.34352000
50.43999969	-14.37422000
50.47999969	-7.18405700
50.51999969	-3.58897700
50.55999969	7.18405700
50.59999969	23.35887000
50.63999969	46.71774000
50.67999969	64.68703000
50.71999969	86.25141000
50.75999969	106.01520000
50.79999969	123.99060000
50.83999969	132.97520000
50.87999969	143.75440000
50.91999969	140.15930000
50.95999969	127.57960000
50.99999969	113.20540000
51.03999969	107.81580000
51.07999969	109.61030000
51.11999969	107.81580000
51.15999969	104.22070000
51.19999969	102.42620000
51.23999969	104.22070000
51.27999969	100.62560000
51.31999969	98.83114000
51.35999969	97.03055000
51.39999969	93.44157000
51.43999969	86.25141000
51.47999969	73.67168000
51.51999969	57.50298000
51.55999969	32.34352000
51.59999969	5.38956800
51.63999969	-25.15336000
51.67999969	-53.90789000
51.71999969	-82.65633000
51.75999969	-109.61030000
51.79999969	-132.97520000
51.83999968	-145.54890000
51.87999968	-158.12860000
51.91999968	-140.15930000
51.95999968	-122.19000000
51.99999968	-93.44157000
52.03999968	-77.26676000
52.07999968	-68.28211000
52.11999968	-64.68703000
52.15999968	-64.68703000
52.19999968	-66.48762000
52.23999968	-70.07660000
52.27999968	-70.07660000
52.31999968	-73.67168000
52.35999968	-82.65633000
52.39999968	-88.04590000
52.43999968	-91.64098000
52.47999968	-91.64098000
52.51999968	-89.84650000
52.55999968	-82.65633000
52.59999968	-68.28211000
52.63999968	-57.50298000
52.67999968	-48.51222000
52.71999968	-43.12265000
52.75999968	-37.73308000
52.79999968	-39.52757000
52.83999968	-34.13800000
52.87999968	-28.74844000
52.91999968	-14.37422000
52.95999968	0.00000000
52.99999968	17.96930000
53.03999968	39.52757000
53.07999968	62.89254000
53.11999968	86.25141000
53.15999968	109.61030000
53.19999968	132.97520000
53.23999968	145.54890000
53.27999968	158.12860000
53.31999968	150.94450000
53.35999968	140.15930000
53.39999968	125.78510000
53.43999968	120.39550000
53.47999967	116.80040000
53.51999967	109.61030000
53.55999967	100.62560000
53.59999967	100.62560000
53.63999967	95.23605000
53.67999967	93.44157000
53.71999967	93.44157000
53.75999967	93.44157000
53.79999967	93.44157000
53.83999967	89.84650000
53.87999967	79.06125000
53.91999967	64.68703000
53.95999967	39.52757000
53.99999967	12.57363000
54.03999967	-16.16870000
54.07999967	-46.71774000
54.11999967	-77.26676000
54.15999967	-106.01520000
54.19999967	-131.17470000
54.23999967	-145.54890000
54.27999967	-163.51820000
54.31999967	-143.75440000
54.35999967	-123.99060000
54.39999967	-95.23605000
54.43999967	-88.04590000
54.47999967	-79.06125000
54.51999967	-73.67168000
54.55999967	-73.67168000
54.59999967	-75.47227000
54.63999967	-79.06125000
54.67999967	-79.06125000
54.71999967	-82.65633000
54.75999967	-88.04590000
54.79999967	-91.64098000
54.83999967	-93.44157000
54.87999967	-95.23605000
54.91999967	-89.84650000
54.95999967	-79.06125000
54.99999967	-66.48762000
55.03999967	-55.70238000
55.07999967	-46.71774000
55.11999967	-39.52757000
55.15999966	-34.13800000
55.19999966	-32.34352000
55.23999966	-25.15336000
55.27999966	-14.37422000
55.31999966	0.00000000
55.35999966	14.37422000
55.39999966	30.54292000
55.43999966	44.92325000
55.47999966	61.09195000
55.51999966	80.86184000
55.55999966	102.42620000
55.59999966	120.39550000
55.63999966	134.76970000
55.67999966	143.75440000
55.71999966	147.34950000
55.75999966	136.56420000
55.79999966	123.99060000
55.83999966	116.80040000
55.87999966	115.00600000
55.91999966	107.81580000
55.95999966	102.42620000
55.99999966	100.62560000
56.03999966	98.83114000
56.07999966	93.44157000
56.11999966	91.64098000
56.15999966	91.64098000
56.19999966	89.84650000
56.23999966	82.65633000
56.27999966	71.87719000
56.31999966	59.29746000
56.35999966	39.52757000
56.39999966	12.57363000
56.43999966	-14.37422000
56.47999966	-43.12265000
56.51999966	-71.87719000
56.55999966	-100.62560000
56.59999966	-123.99060000
56.63999966	-141.95990000
56.67999966	-147.34950000
56.71999966	-143.75440000
56.75999966	-122.19000000
56.79999965	-104.22070000
56.83999965	-88.04590000
56.87999965	-75.47227000
56.91999965	-71.87719000
56.95999965	-75.47227000
56.99999965	-75.47227000
57.03999965	-73.67168000
57.07999965	-73.67168000
57.11999965	-79.06125000
57.15999965	-84.45692000
57.19999965	-88.04590000
57.23999965	-89.84650000
57.27999965	-91.64098000
57.31999965	-89.84650000
57.35999965	-82.65633000
57.39999965	-71.87719000
57.43999965	-59.29746000
57.47999965	-50.31281000
57.51999965	-43.12265000
57.55999965	-39.52757000
57.59999965	-35.93859000
57.63999965	-28.74844000
57.67999965	-21.55827000
57.71999965	-7.18405700
57.75999965	8.98464900
57.79999965	26.95395000
57.83999965	46.71774000
57.87999965	64.68703000
57.91999965	86.25141000
57.95999965	106.01520000
57.99999965	123.99060000
58.03999965	138.36480000
58.07999965	145.54890000
58.11999965	147.34950000
58.15999965	138.36480000
58.19999965	127.57960000
58.23999965	118.59490000
58.27999965	115.00600000
58.31999965	111.41090000
58.35999965	106.01520000
58.39999965	100.62560000
58.43999964	100.62560000
58.47999964	97.03055000
58.51999964	95.23605000
58.55999964	93.44157000
58.59999964	93.44157000
58.63999964	88.04590000
58.67999964	79.06125000
58.71999964	64.68703000
58.75999964	44.92325000
58.79999964	17.96930000
58.83999964	-10.77914000
58.87999964	-37.73308000
58.91999964	-68.28211000
58.95999964	-95.23605000
58.99999964	-120.39550000
59.03999964	-140.15930000
59.07999964	-147.34950000
59.11999964	-143.75440000
59.15999964	-127.57960000
59.19999964	-106.01520000
59.23999964	-88.04590000
59.27999964	-80.86184000
59.31999964	-77.26676000
59.35999964	-75.47227000
59.39999964	-75.47227000
59.43999964	-79.06125000
59.47999964	-79.06125000
59.51999964	-82.65633000
59.55999964	-84.45692000
59.59999964	-89.84650000
59.63999964	-93.44157000
59.67999964	-95.23605000
59.71999964	-91.64098000
59.75999964	-82.65633000
59.79999964	-71.87719000
59.83999964	-59.29746000
59.87999964	-50.31281000
59.91999964	-41.32816000
59.95999964	-35.93859000
59.99999964	-26.95395000
60.03999964	-25.15336000
60.07999963	-16.16870000
60.11999963	-3.58897700
60.15999963	10.77914000
60.19999963	14.37422000
60.23999963	32.34352000
60.27999963	64.68703000
60.31999963	84.45692000
60.35999963	95.23605000
60.39999963	113.20540000
60.43999963	129.38020000
60.47999963	145.54890000
60.51999963	149.14400000
60.55999963	140.15930000
60.59999963	129.38020000
60.63999963	120.39550000
60.67999963	115.00600000
60.71999963	109.61030000
60.75999963	106.01520000
60.79999963	102.42620000
60.83999963	98.83114000
60.87999963	98.83114000
60.91999963	97.03055000
60.95999963	93.44157000
60.99999963	91.64098000
61.03999963	88.04590000
61.07999963	82.65633000
61.11999963	70.07660000
61.15999963	52.10730000
61.19999963	28.74844000
61.23999963	0.00000000
61.27999963	-28.74844000
61.31999963	-59.29746000
61.35999963	-88.04590000
61.39999963	-115.00600000
61.43999963	-136.56420000
61.47999963	-152.73900000
61.51999963	-158.12860000
61.55999963	-145.54890000
61.59999963	-127.57960000
61.63999963	-107.81580000
61.67999963	-93.44157000
61.71999962	-82.65633000
61.75999962	-79.06125000
61.79999962	-71.87719000
61.83999962	-75.47227000
61.87999962	-77.26676000
61.91999962	-79.06125000
61.95999962	-84.45692000
61.99999962	-88.04590000
62.03999962	-89.84650000
62.07999962	-91.64098000
62.11999962	-93.44157000
62.15999962	-89.84650000
62.19999962	-79.06125000
62.23999962	-66.48762000
62.27999962	-55.70238000
62.31999962	-48.51222000
62.35999962	-41.32816000
62.39999962	-32.34352000
62.43999962	-28.74844000
62.47999962	-21.55827000
62.51999962	-12.57363000
62.55999962	0.00000000
62.59999962	14.37422000
62.63999962	28.74844000
62.67999962	48.51222000
62.71999962	66.48762000
62.75999962	86.25141000
62.79999962	107.81580000
62.83999962	127.57960000
62.87999962	141.95990000
62.91999962	150.94450000
62.95999962	147.34950000
62.99999962	134.76970000
63.03999962	122.19000000
63.07999962	116.80040000
63.11999962	113.20540000
63.15999962	107.81580000
63.19999962	102.42620000
63.23999962	100.62560000
63.27999962	97.03055000
63.31999962	93.44157000
63.35999961	91.64098000
63.39999961	91.64098000
63.43999961	88.04590000
63.47999961	82.65633000
63.51999961	71.87719000
63.55999961	57.50298000
63.59999961	34.13800000
63.63999961	3.58897700
63.67999961	-23.35887000
63.71999961	-52.10730000
63.75999961	-82.65633000
63.79999961	-111.41090000
63.83999961	-134.76970000
63.87999961	-147.34950000
63.91999961	-150.94450000
63.95999961	-136.56420000
63.99999961	-111.41090000
64.03999961	-91.64098000
64.07999961	-86.25141000
64.11999961	-79.06125000
64.15999961	-71.87719000
64.19999961	-71.87719000
64.23999961	-73.67168000
64.27999961	-75.47227000
64.31999961	-77.26676000
64.35999961	-80.86184000
64.39999961	-86.25141000
64.43999961	-91.64098000
64.47999961	-93.44157000
64.51999961	-93.44157000
64.55999961	-88.04590000
64.59999961	-77.26676000
64.63999961	-64.68703000
64.67999961	-55.70238000
64.71999961	-46.71774000
64.75999961	-41.32816000
64.79999961	-37.73308000
64.83999961	-32.34352000
64.87999961	-28.74844000
64.91999961	-19.76379000
64.95999961	-7.18405700
64.99999960	5.38956800
65.03999960	21.55827000
65.07999960	39.52757000
65.11999960	62.89254000
65.15999960	86.25141000
65.19999960	109.61030000
65.23999960	131.17470000
65.27999960	141.95990000
65.31999960	154.53350000
65.35999960	149.14400000
65.39999960	138.36480000
65.43999960	125.78510000
65.47999960	118.59490000
65.51999960	115.00600000
65.55999960	109.61030000
65.59999960	102.42620000
65.63999960	100.62560000
65.67999960	98.83114000
65.71999960	95.23605000
65.75999960	95.23605000
65.79999960	95.23605000
65.83999960	95.23605000
65.87999960	91.64098000
65.91999960	82.65633000
65.95999960	66.48762000
65.99999960	44.92325000
66.03999960	17.96930000
66.07999960	-12.57363000
66.11999960	-43.12265000
66.15999960	-73.67168000
66.19999960	-102.42620000
66.23999960	-129.38020000
66.27999960	-143.75440000
66.31999960	-152.73900000
66.35999960	-134.76970000
66.39999960	-115.00600000
66.43999960	-88.04590000
66.47999960	-82.65633000
66.51999960	-75.47227000
66.55999960	-71.87719000
66.59999960	-66.48762000
66.63999959	-66.48762000
66.67999959	-68.28211000
66.71999959	-73.67168000
66.75999959	-79.06125000
66.79999959	-82.65633000
66.83999959	-86.25141000
66.87999959	-88.04590000
66.91999959	-93.44157000
66.95999959	-88.04590000
66.99999959	-75.47227000
67.03999959	-61.09195000
67.07999959	-53.90789000
67.11999959	-44.92325000
67.15999959	-39.52757000
67.19999959	-34.13800000
67.23999959	-32.34352000
67.27999959	-26.95395000
67.31999959	-17.96930000
67.35999959	-5.38956800
67.39999959	8.98464900
67.43999959	26.95395000
67.47999959	46.71774000
67.51999959	66.48762000
67.55999959	89.84650000
67.59999959	109.61030000
67.63999959	129.38020000
67.67999959	141.95990000
67.71999959	149.14400000
67.75999959	145.54890000
67.79999959	136.56420000
67.83999959	122.19000000
67.87999959	118.59490000
67.91999959	113.20540000
67.95999959	109.61030000
67.99999959	106.01520000
68.03999959	100.62560000
68.07999959	100.62560000
68.11999959	98.83114000
68.15999959	98.83114000
68.19999959	98.83114000
68.23999959	95.23605000
68.27999959	91.64098000
68.31999958	84.45692000
68.35999958	70.07660000
68.39999958	50.31281000
68.43999958	23.35887000
68.47999958	-5.38956800
68.51999958	-34.13800000
68.55999958	-64.68703000
68.59999958	-93.44157000
68.63999958	-122.19000000
68.67999958	-140.15930000
68.71999958	-156.33410000
68.75999958	-147.34950000
68.79999958	-127.57960000
68.83999958	-102.42620000
68.87999958	-89.84650000
68.91999958	-80.86184000
68.95999958	-75.47227000
68.99999958	-71.87719000
69.03999958	-73.67168000
69.07999958	-73.67168000
69.11999958	-77.26676000
69.15999958	-79.06125000
69.19999958	-84.45692000
69.23999958	-89.84650000
69.27999958	-91.64098000
69.31999958	-93.44157000
69.35999958	-89.84650000
69.39999958	-79.06125000
69.43999958	-68.28211000
69.47999958	-57.50298000
69.51999958	-50.31281000
69.55999958	-43.12265000
69.59999958	-35.93859000
69.63999958	-30.54292000
69.67999958	-23.35887000
69.71999958	-14.37422000
69.75999958	-1.79448800
69.79999958	14.37422000
69.83999958	28.74844000
69.87999958	46.71774000
69.91999958	64.68703000
69.95999957	86.25141000
69.99999957	106.01520000
70.03999957	115.00600000
70.07999957	127.57960000
70.11999957	149.14400000
70.15999957	150.94450000
70.19999957	136.56420000
70.23999957	120.39550000
70.27999957	115.00600000
70.31999957	115.00600000
70.35999957	111.41090000
70.39999957	104.22070000
70.43999957	102.42620000
70.47999957	100.62560000
70.51999957	98.83114000
70.55999957	97.03055000
70.59999957	95.23605000
70.63999957	93.44157000
70.67999957	88.04590000
70.71999957	82.65633000
70.75999957	71.87719000
70.79999957	52.10730000
70.83999957	26.95395000
70.87999957	0.00000000
70.91999957	-28.74844000
70.95999957	-57.50298000
70.99999957	-88.04590000
71.03999957	-115.00600000
71.07999957	-140.15930000
71.11999957	-150.94450000
71.15999957	-161.72370000
71.19999957	-136.56420000
71.23999957	-115.00600000
71.27999957	-89.84650000
71.31999957	-86.25141000
71.35999957	-77.26676000
71.39999957	-73.67168000
71.43999957	-73.67168000
71.47999957	-75.47227000
71.51999957	-77.26676000
71.55999957	-79.06125000
71.59999956	-80.86184000
71.63999956	-86.25141000
71.67999956	-93.44157000
71.71999956	-93.44157000
71.75999956	-93.44157000
71.79999956	-88.04590000
71.83999956	-71.87719000
71.87999956	-61.09195000
71.91999956	-50.31281000
71.95999956	-44.92325000
71.99999956	-37.73308000
72.03999956	-30.54292000
72.07999956	-26.95395000
72.11999956	-21.55827000
72.15999956	-8.98464900
72.19999956	5.38956800
72.23999956	19.76379000
72.27999956	34.13800000
72.31999956	53.90789000
72.35999956	75.47227000
72.39999956	93.44157000
72.43999956	115.00600000
72.47999956	134.76970000
72.51999956	145.54890000
72.55999956	150.94450000
72.59999956	141.95990000
72.63999956	131.17470000
72.67999956	118.59490000
72.71999956	120.39550000
72.75999956	113.20540000
72.79999956	107.81580000
72.83999956	104.22070000
72.87999956	100.62560000
72.91999956	97.03055000
72.95999956	93.44157000
72.99999956	95.23605000
73.03999956	95.23605000
73.07999956	91.64098000
73.11999956	84.45692000
73.15999956	75.47227000
73.19999956	57.50298000
73.23999955	32.34352000
73.27999955	5.38956800
73.31999955	-23.35887000
73.35999955	-52.10730000
73.39999955	-84.45692000
73.43999955	-111.41090000
73.47999955	-138.36480000
73.51999955	-150.94450000
73.55999955	-167.11330000
73.59999955	-141.95990000
73.63999955	-122.19000000
73.67999955	-91.64098000
73.71999955	-84.45692000
73.75999955	-71.87719000
73.79999955	-68.28211000
73.83999955	-66.48762000
73.87999955	-70.07660000
73.91999955	-71.87719000
73.95999955	-73.67168000
73.99999955	-77.26676000
74.03999955	-86.25141000
74.07999955	-89.84650000
74.11999955	-93.44157000
74.15999955	-93.44157000
74.19999955	-80.86184000
74.23999955	-52.10730000
74.27999955	-26.95395000
74.31999955	-23.35887000
74.35999955	-37.73308000
74.39999955	-39.52757000
74.43999955	-39.52757000
74.47999955	-55.70238000
74.51999955	-70.07660000
74.55999955	-70.07660000
74.59999955	-44.92325000
74.63999955	-8.98464900
74.67999955	21.55827000
74.71999955	46.71774000
74.75999955	71.87719000
74.79999955	107.81580000
74.83999955	140.15930000
74.87999954	156.33410000
74.91999954	150.94450000
74.95999954	159.92920000
74.99999954	152.73900000
75.03999954	149.14400000
75.07999954	134.76970000
75.11999954	123.99060000
75.15999954	116.80040000
75.19999954	113.20540000
75.23999954	109.61030000
75.27999954	104.22070000
75.31999954	97.03055000
75.35999954	91.64098000
75.39999954	89.84650000
75.43999954	89.84650000
75.47999954	82.65633000
75.51999954	71.87719000
75.55999954	59.29746000
75.59999954	46.71774000
75.63999954	28.74844000
75.67999954	7.18405700
75.71999954	-16.16870000
75.75999954	-43.12265000
75.79999954	-68.28211000
75.83999954	-93.44157000
75.87999954	-116.80040000
75.91999954	-136.56420000
75.95999954	-147.34950000
75.99999954	-129.38020000
76.03999954	-111.41090000
76.07999954	-91.64098000
76.11999954	-79.06125000
76.15999954	-70.07660000
76.19999954	-61.09195000
76.23999954	-64.68703000
76.27999954	-64.68703000
76.31999954	-70.07660000
76.35999954	-71.87719000
76.39999954	-79.06125000
76.43999954	-82.65633000
76.47999954	-88.04590000
76.51999953	-97.03055000
76.55999953	-98.83114000
76.59999953	-88.04590000
76.63999953	-71.87719000
76.67999953	-57.50298000
76.71999953	-44.92325000
76.75999953	-35.93859000
76.79999953	-28.74844000
76.83999953	-23.35887000
76.87999953	-28.74844000
76.91999953	-23.35887000
76.95999953	-17.96930000
76.99999953	-1.79448800
77.03999953	12.57363000
77.07999953	28.74844000
77.11999953	48.51222000
77.15999953	71.87719000
77.19999953	93.44157000
77.23999953	115.00600000
77.27999953	134.76970000
77.31999953	149.14400000
77.35999953	150.94450000
77.39999953	145.54890000
77.43999953	127.57960000
77.47999953	120.39550000
77.51999953	115.00600000
77.55999953	109.61030000
77.59999953	104.22070000
77.63999953	102.42620000
77.67999953	100.62560000
77.71999953	98.83114000
77.75999953	100.62560000
77.79999953	100.62560000
77.83999953	100.62560000
77.87999953	98.83114000
77.91999953	91.64098000
77.95999953	80.86184000
77.99999953	62.89254000
78.03999953	35.93859000
78.07999953	7.18405700
78.11999953	-21.55827000
78.15999952	-52.10730000
78.19999952	-82.65633000
78.23999952	-113.20540000
78.27999952	-136.56420000
78.31999952	-149.14400000
78.35999952	-154.53350000
78.39999952	-131.17470000
78.43999952	-106.01520000
78.47999952	-82.65633000
78.51999952	-77.26676000
78.55999952	-71.87719000
78.59999952	-66.48762000
78.63999952	-64.68703000
78.67999952	-68.28211000
78.71999952	-68.28211000
78.75999952	-70.07660000
78.79999952	-73.67168000
78.83999952	-80.86184000
78.87999952	-89.84650000
78.91999952	-93.44157000
78.95999952	-93.44157000
78.99999952	-86.25141000
79.03999952	-71.87719000
79.07999952	-57.50298000
79.11999952	-48.51222000
79.15999952	-37.73308000
79.19999952	-30.54292000
79.23999952	-25.15336000
79.27999952	-21.55827000
79.31999952	-12.57363000
79.35999952	0.00000000
79.39999952	12.57363000
79.43999952	26.95395000
79.47999952	43.12265000
79.51999952	61.09195000
79.55999952	79.06125000
79.59999952	98.83114000
79.63999952	118.59490000
79.67999952	132.97520000
79.71999952	143.75440000
79.75999952	143.75440000
79.79999952	140.15930000
79.83999951	131.17470000
79.87999951	115.00600000
79.91999951	107.81580000
79.95999951	118.59490000
79.99999951	115.00600000
80.03999951	104.22070000
80.07999951	95.23605000
80.11999951	95.23605000
80.15999951	98.83114000
80.19999951	98.83114000
80.23999951	93.44157000
80.27999951	93.44157000
80.31999951	88.04590000
80.35999951	77.26676000
80.39999951	57.50298000
80.43999951	35.93859000
80.47999951	8.98464900
80.51999951	-19.76379000
80.55999951	-48.51222000
80.59999951	-77.26676000
80.63999951	-107.81580000
80.67999951	-132.97520000
80.71999951	-145.54890000
80.75999951	-154.53350000
80.79999951	-131.17470000
80.83999951	-111.41090000
80.87999951	-88.04590000
80.91999951	-86.25141000
80.95999951	-79.06125000
80.99999951	-75.47227000
81.03999951	-73.67168000
81.07999951	-73.67168000
81.11999951	-75.47227000
81.15999951	-73.67168000
81.19999951	-79.06125000
81.23999951	-84.45692000
81.27999951	-89.84650000
81.31999951	-89.84650000
81.35999951	-89.84650000
81.39999951	-82.65633000
81.43999951	-70.07660000
81.47999950	-57.50298000
81.51999950	-46.71774000
81.55999950	-41.32816000
81.59999950	-37.73308000
81.63999950	-30.54292000
81.67999950	-23.35887000
81.71999950	-16.16870000
81.75999950	-1.79448800
81.79999950	14.37422000
81.83999950	28.74844000
81.87999950	43.12265000
81.91999950	59.29746000
81.95999950	80.86184000
81.99999950	100.62560000
82.03999950	116.80040000
82.07999950	131.17470000
82.11999950	141.95990000
82.15999950	143.75440000
82.19999950	136.56420000
82.23999950	125.78510000
82.27999950	116.80040000
82.31999950	113.20540000
82.35999950	111.41090000
82.39999950	107.81580000
82.43999950	102.42620000
82.47999950	98.83114000
82.51999950	98.83114000
82.55999950	97.03055000
82.59999950	95.23605000
82.63999950	95.23605000
82.67999950	91.64098000
82.71999950	86.25141000
82.75999950	75.47227000
82.79999950	59.29746000
82.83999950	35.93859000
82.87999950	12.57363000
82.91999950	-14.37422000
82.95999950	-43.12265000
82.99999950	-71.87719000
83.03999950	-102.42620000
83.07999950	-127.57960000
83.11999949	-143.75440000
83.15999949	-158.12860000
83.19999949	-143.75440000
83.23999949	-123.99060000
83.27999949	-104.22070000
83.31999949	-93.44157000
83.35999949	-80.86184000
83.39999949	-73.67168000
83.43999949	-73.67168000
83.47999949	-73.67168000
83.51999949	-73.67168000
83.55999949	-73.67168000
83.59999949	-79.06125000
83.63999949	-82.65633000
83.67999949	-88.04590000
83.71999949	-89.84650000
83.75999949	-91.64098000
83.79999949	-88.04590000
83.83999949	-75.47227000
83.87999949	-66.48762000
83.91999949	-55.70238000
83.95999949	-46.71774000
83.99999949	-39.52757000
84.03999949	-35.93859000
84.07999949	-30.54292000
84.11999949	-23.35887000
84.15999949	-10.77914000
84.19999949	0.00000000
84.23999949	16.16870000
84.27999949	32.34352000
84.31999949	50.31281000
84.35999949	70.07660000
84.39999949	88.04590000
84.43999949	107.81580000
84.47999949	127.57960000
84.51999949	138.36480000
84.55999949	150.94450000
84.59999949	143.75440000
84.63999949	134.76970000
84.67999949	120.39550000
84.71999949	116.80040000
84.75999948	107.81580000
84.79999948	106.01520000
84.83999948	100.62560000
84.87999948	100.62560000
84.91999948	100.62560000
84.95999948	97.03055000
84.99999948	93.44157000
85.03999948	93.44157000
85.07999948	91.64098000
85.11999948	86.25141000
85.15999948	77.26676000
85.19999948	62.89254000
85.23999948	41.32816000
85.27999948	14.37422000
85.31999948	-14.37422000
85.35999948	-43.12265000
85.39999948	-71.87719000
85.43999948	-100.62560000
85.47999948	-123.99060000
85.51999948	-140.15930000
85.55999948	-147.34950000
85.59999948	-132.97520000
85.63999948	-115.00600000
85.67999948	-91.64098000
85.71999948	-80.86184000
85.75999948	-73.67168000
85.79999948	-68.28211000
85.83999948	-68.28211000
85.87999948	-68.28211000
85.91999948	-71.87719000
85.95999948	-71.87719000
85.99999948	-73.67168000
86.03999948	-80.86184000
86.07999948	-84.45692000
86.11999948	-88.04590000
86.15999948	-89.84650000
86.19999948	-84.45692000
86.23999948	-77.26676000
86.27999948	-64.68703000
86.31999948	-53.90789000
86.35999948	-43.12265000
86.39999947	-34.13800000
86.43999947	-35.93859000
86.47999947	-34.13800000
86.51999947	-26.95395000
86.55999947	-12.57363000
86.59999947	-1.79448800
86.63999947	14.37422000
86.67999947	28.74844000
86.71999947	50.31281000
86.75999947	71.87719000
86.79999947	91.64098000
86.83999947	111.41090000
86.87999947	131.17470000
86.91999947	143.75440000
86.95999947	150.94450000
86.99999947	143.75440000
87.03999947	131.17470000
87.07999947	120.39550000
87.11999947	116.80040000
87.15999947	113.20540000
87.19999947	107.81580000
87.23999947	102.42620000
87.27999947	100.62560000
87.31999947	98.83114000
87.35999947	95.23605000
87.39999947	95.23605000
87.43999947	95.23605000
87.47999947	93.44157000
87.51999947	89.84650000
87.55999947	82.65633000
87.59999947	68.28211000
87.63999947	46.71774000
87.67999947	21.55827000
87.71999947	-7.18405700
87.75999947	-37.73308000
87.79999947	-66.48762000
87.83999947	-97.03055000
87.87999947	-123.99060000
87.91999947	-141.95990000
87.95999947	-154.53350000
87.99999947	-145.54890000
88.03999946	-122.19000000
88.07999946	-98.83114000
88.11999946	-88.04590000
88.15999946	-82.65633000
88.19999946	-75.47227000
88.23999946	-73.67168000
88.27999946	-73.67168000
88.31999946	-73.67168000
88.35999946	-73.67168000
88.39999946	-75.47227000
88.43999946	-80.86184000
88.47999946	-86.25141000
88.51999946	-89.84650000
88.55999946	-89.84650000
88.59999946	-86.25141000
88.63999946	-77.26676000
88.67999946	-64.68703000
88.71999946	-53.90789000
88.75999946	-52.10730000
88.79999946	-41.32816000
88.83999946	-39.52757000
88.87999946	-28.74844000
88.91999946	-21.55827000
88.95999946	-7.18405700
88.99999946	5.38956800
89.03999946	21.55827000
89.07999946	35.93859000
89.11999946	53.90789000
89.15999946	71.87719000
89.19999946	91.64098000
89.23999946	109.61030000
89.27999946	127.57960000
89.31999946	136.56420000
89.35999946	143.75440000
89.39999946	140.15930000
89.43999946	129.38020000
89.47999946	118.59490000
89.51999946	111.41090000
89.55999946	111.41090000
89.59999946	107.81580000
89.63999946	106.01520000
89.67999945	97.03055000
89.71999945	86.25141000
89.75999945	97.03055000
89.79999945	102.42620000
89.83999945	98.83114000
89.87999945	89.84650000
89.91999945	82.65633000
89.95999945	79.06125000
89.99999945	66.48762000
90.03999945	43.12265000
90.07999945	17.96930000
90.11999945	-7.18405700
90.15999945	-35.93859000
90.19999945	-66.48762000
90.23999945	-93.44157000
90.27999945	-122.19000000
90.31999945	-138.36480000
90.35999945	-158.12860000
90.39999945	-136.56420000
90.43999945	-122.19000000
90.47999945	-84.45692000
90.51999945	-68.28211000
90.55999945	-52.10730000
90.59999945	-52.10730000
90.63999945	-59.29746000
90.67999945	-73.67168000
90.71999945	-86.25141000
90.75999945	-102.42620000
90.79999945	-118.59490000
90.83999945	-125.78510000
90.87999945	-122.19000000
90.91999945	-111.41090000
90.95999945	-100.62560000
90.99999945	-86.25141000
91.03999945	-70.07660000
91.07999945	-52.10730000
91.11999945	-37.73308000
91.15999945	-32.34352000
91.19999945	-28.74844000
91.23999945	-28.74844000
91.27999945	-23.35887000
91.31999945	-14.37422000
91.35999944	-8.98464900
91.39999944	3.58897700
91.43999944	17.96930000
91.47999944	35.93859000
91.51999944	52.10730000
91.55999944	75.47227000
91.59999944	91.64098000
91.63999944	107.81580000
91.67999944	123.99060000
91.71999944	132.97520000
91.75999944	138.36480000
91.79999944	131.17470000
91.83999944	118.59490000
91.87999944	107.81580000
91.91999944	107.81580000
91.95999944	109.61030000
91.99999944	107.81580000
92.03999944	107.81580000
92.07999944	107.81580000
92.11999944	107.81580000
92.15999944	106.01520000
92.19999944	102.42620000
92.23999944	100.62560000
92.27999944	95.23605000
92.31999944	89.84650000
92.35999944	79.06125000
92.39999944	66.48762000
92.43999944	44.92325000
92.47999944	21.55827000
92.51999944	-5.38956800
92.55999944	-35.93859000
92.59999944	-66.48762000
92.63999944	-98.83114000
92.67999944	-125.78510000
92.71999944	-143.75440000
92.75999944	-163.51820000
92.79999944	-143.75440000
92.83999944	-127.57960000
92.87999944	-98.83114000
92.91999944	-91.64098000
92.95999944	-77.26676000
92.99999943	-71.87719000
93.03999943	-66.48762000
93.07999943	-66.48762000
93.11999943	-66.48762000
93.15999943	-68.28211000
93.19999943	-71.87719000
93.23999943	-79.06125000
93.27999943	-84.45692000
93.31999943	-88.04590000
93.35999943	-91.64098000
93.39999943	-88.04590000
93.43999943	-79.06125000
93.47999943	-68.28211000
93.51999943	-59.29746000
93.55999943	-50.31281000
93.59999943	-43.12265000
93.63999943	-35.93859000
93.67999943	-34.13800000
93.71999943	-28.74844000
93.75999943	-17.96930000
93.79999943	-3.58897700
93.83999943	8.98464900
93.87999943	26.95395000
93.91999943	48.51222000
93.95999943	66.48762000
93.99999943	89.84650000
94.03999943	111.41090000
94.07999943	129.38020000
94.11999943	141.95990000
94.15999943	150.94450000
94.19999943	143.75440000
94.23999943	136.56420000
94.27999943	120.39550000
94.31999943	116.80040000
94.35999943	111.41090000
94.39999943	106.01520000
94.43999943	102.42620000
94.47999943	98.83114000
94.51999943	95.23605000
94.55999943	91.64098000
94.59999943	91.64098000
94.63999942	93.44157000
94.67999942	97.03055000
94.71999942	91.64098000
94.75999942	80.86184000
94.79999942	68.28211000
94.83999942	50.31281000
94.87999942	26.95395000
94.91999942	0.00000000
94.95999942	-30.54292000
94.99999942	-59.29746000
95.03999942	-89.84650000
95.07999942	-115.00600000
95.11999942	-134.76970000
95.15999942	-143.75440000
95.19999942	-136.56420000
95.23999942	-116.80040000
95.27999942	-100.62560000
95.31999942	-89.84650000
95.35999942	-82.65633000
95.39999942	-77.26676000
95.43999942	-73.67168000
95.47999942	-75.47227000
95.51999942	-73.67168000
95.55999942	-73.67168000
95.59999942	-77.26676000
95.63999942	-80.86184000
95.67999942	-86.25141000
95.71999942	-88.04590000
95.75999942	-89.84650000
95.79999942	-84.45692000
95.83999942	-75.47227000
95.87999942	-64.68703000
95.91999942	-53.90789000
95.95999942	-44.92325000
95.99999942	-39.52757000
96.03999942	-35.93859000
96.07999942	-32.34352000
96.11999942	-25.15336000
96.15999942	-8.98464900
96.19999942	0.00000000
96.23999942	12.57363000
96.27999941	28.74844000
96.31999941	50.31281000
96.35999941	71.87719000
96.39999941	89.84650000
96.43999941	107.81580000
96.47999941	125.78510000
96.51999941	136.56420000
96.55999941	149.14400000
96.59999941	141.95990000
96.63999941	136.56420000
96.67999941	120.39550000
96.71999941	118.59490000
96.75999941	115.00600000
96.79999941	107.81580000
96.83999941	102.42620000
96.87999941	100.62560000
96.91999941	100.62560000
96.95999941	98.83114000
96.99999941	97.03055000
97.03999941	97.03055000
97.07999941	95.23605000
97.11999941	91.64098000
97.15999941	82.65633000
97.19999941	70.07660000
97.23999941	52.10730000
97.27999941	28.74844000
97.31999941	0.00000000
97.35999941	-28.74844000
97.39999941	-55.70238000
97.43999941	-86.25141000
97.47999941	-113.20540000
97.51999941	-131.17470000
97.55999941	-149.14400000
97.59999941	-134.76970000
97.63999941	-123.99060000
97.67999941	-95.23605000
97.71999941	-91.64098000
97.75999941	-80.86184000
97.79999941	-79.06125000
97.83999941	-71.87719000
97.87999941	-73.67168000
97.91999940	-73.67168000
97.95999940	-71.87719000
97.99999940	-75.47227000
98.03999940	-80.86184000
98.07999940	-84.45692000
98.11999940	-88.04590000
98.15999940	-89.84650000
98.19999940	-88.04590000
98.23999940	-77.26676000
98.27999940	-68.28211000
98.31999940	-57.50298000
98.35999940	-48.51222000
98.39999940	-39.52757000
98.43999940	-32.34352000
98.47999940	-28.74844000
98.51999940	-21.55827000
98.55999940	-12.57363000
98.59999940	0.00000000
98.63999940	14.37422000
98.67999940	28.74844000
98.71999940	46.71774000
98.75999940	66.48762000
98.79999940	86.25141000
98.83999940	104.22070000
98.87999940	122.19000000
98.91999940	132.97520000
98.95999940	143.75440000
98.99999940	140.15930000
99.03999940	134.76970000
99.07999940	120.39550000
99.11999940	116.80040000
99.15999940	113.20540000
99.19999940	107.81580000
99.23999940	104.22070000
99.27999940	102.42620000
99.31999940	100.62560000
99.35999940	97.03055000
99.39999940	97.03055000
99.43999940	97.03055000
99.47999940	97.03055000
99.51999940	80.86184000
99.55999939	77.26676000
99.59999939	79.06125000
99.63999939	61.09195000
99.67999939	30.54292000
99.71999939	3.58897700
99.75999939	-23.35887000
99.79999939	-48.51222000
99.83999939	-80.86184000
99.87999939	-109.61030000
99.91999939	-129.38020000
99.95999939	-149.14400000
99.99999939	-143.75440000
100.03999939	-127.57960000
100.07999939	-102.42620000
100.11999939	-93.44157000
100.15999939	-84.45692000
100.19999939	-75.47227000
100.23999939	-70.07660000
100.27999939	-68.28211000
100.31999939	-71.87719000
100.35999939	-70.07660000
100.39999939	-71.87719000
100.43999939	-77.26676000
100.47999939	-80.86184000
100.51999939	-84.45692000
100.55999939	-88.04590000
100.59999939	-86.25141000
100.63999939	-79.06125000
100.67999939	-68.28211000
100.71999939	-57.50298000
100.75999939	-48.51222000
100.79999939	-39.52757000
100.83999939	-34.13800000
100.87999939	-30.54292000
100.91999939	-25.15336000
100.95999939	-17.96930000
100.99999939	-5.38956800
101.03999939	8.98464900
101.07999939	23.35887000
101.11999939	44.92325000
101.15999939	61.09195000
101.19999938	79.06125000
101.23999938	98.83114000
101.27999938	120.39550000
101.31999938	129.38020000
101.35999938	147.34950000
101.39999938	143.75440000
101.43999938	138.36480000
101.47999938	125.78510000
101.51999938	115.00600000
101.55999938	115.00600000
101.59999938	111.41090000
101.63999938	106.01520000
101.67999938	102.42620000
101.71999938	100.62560000
101.75999938	98.83114000
101.79999938	93.44157000
101.83999938	93.44157000
101.87999938	93.44157000
101.91999938	88.04590000
101.95999938	82.65633000
101.99999938	71.87719000
102.03999938	55.70238000
102.07999938	32.34352000
102.11999938	5.38956800
102.15999938	-23.35887000
102.19999938	-52.10730000
102.23999938	-82.65633000
102.27999938	-111.41090000
102.31999938	-127.57960000
102.35999938	-147.34950000
102.39999938	-136.56420000
102.43999938	-122.19000000
102.47999938	-100.62560000
102.51999938	-93.44157000
102.55999938	-82.65633000
102.59999938	-75.47227000
102.63999938	-71.87719000
102.67999938	-70.07660000
102.71999938	-71.87719000
102.75999938	-71.87719000
102.79999938	-73.67168000
102.83999937	-79.06125000
102.87999937	-82.65633000
102.91999937	-86.25141000
102.95999937	-88.04590000
102.99999937	-86.25141000
103.03999937	-79.06125000
103.07999937	-68.28211000
103.11999937	-59.29746000
103.15999937	-50.31281000
103.19999937	-41.32816000
103.23999937	-35.93859000
103.27999937	-30.54292000
103.31999937	-23.35887000
103.35999937	-12.57363000
103.39999937	0.00000000
103.43999937	14.37422000
103.47999937	30.54292000
103.51999937	48.51222000
103.55999937	66.48762000
103.59999937	84.45692000
103.63999937	102.42620000
103.67999937	118.59490000
103.71999937	131.17470000
103.75999937	141.95990000
103.79999937	140.15930000
103.83999937	134.76970000
103.87999937	125.78510000
103.91999937	116.80040000
103.95999937	113.20540000
103.99999937	109.61030000
104.03999937	106.01520000
104.07999937	102.42620000
104.11999937	100.62560000
104.15999937	98.83114000
104.19999937	97.03055000
104.23999937	95.23605000
104.27999937	93.44157000
104.31999937	89.84650000
104.35999937	80.86184000
104.39999937	70.07660000
104.43999937	55.70238000
104.47999937	35.93859000
104.51999936	10.77914000
104.55999936	-16.16870000
104.59999936	-50.31281000
104.63999936	-79.06125000
104.67999936	-107.81580000
104.71999936	-127.57960000
104.75999936	-147.34950000
104.79999936	-141.95990000
104.83999936	-129.38020000
104.87999936	-102.42620000
104.91999936	-89.84650000
104.95999936	-82.65633000
104.99999936	-75.47227000
105.03999936	-71.87719000
105.07999936	-70.07660000
105.11999936	-71.87719000
105.15999936	-70.07660000
105.19999936	-71.87719000
105.23999936	-77.26676000
105.27999936	-80.86184000
105.31999936	-86.25141000
105.35999936	-88.04590000
105.39999936	-86.25141000
105.43999936	-80.86184000
105.47999936	-68.28211000
105.51999936	-61.09195000
105.55999936	-50.31281000
105.59999936	-43.12265000
105.63999936	-34.13800000
105.67999936	-34.13800000
105.71999936	-26.95395000
105.75999936	-19.76379000
105.79999936	-3.58897700
105.83999936	10.77914000
105.87999936	26.95395000
105.91999936	46.71774000
105.95999936	64.68703000
105.99999936	86.25141000
106.03999936	107.81580000
106.07999936	123.99060000
106.11999936	132.97520000
106.15999935	143.75440000
106.19999935	141.95990000
106.23999935	134.76970000
106.27999935	123.99060000
106.31999935	118.59490000
106.35999935	113.20540000
106.39999935	111.41090000
106.43999935	106.01520000
106.47999935	104.22070000
106.51999935	100.62560000
106.55999935	98.83114000
106.59999935	97.03055000
106.63999935	97.03055000
106.67999935	95.23605000
106.71999935	91.64098000
106.75999935	84.45692000
106.79999935	73.67168000
106.83999935	55.70238000
106.87999935	34.13800000
106.91999935	7.18405700
106.95999935	-19.76379000
106.99999935	-50.31281000
107.03999935	-79.06125000
107.07999935	-106.01520000
107.11999935	-127.57960000
107.15999935	-140.15930000
107.19999935	-136.56420000
107.23999935	-122.19000000
107.27999935	-100.62560000
107.31999935	-89.84650000
107.35999935	-82.65633000
107.39999935	-77.26676000
107.43999935	-71.87719000
107.47999935	-71.87719000
107.51999935	-71.87719000
107.55999935	-71.87719000
107.59999935	-73.67168000
107.63999935	-79.06125000
107.67999935	-82.65633000
107.71999935	-86.25141000
107.75999935	-88.04590000
107.79999934	-86.25141000
107.83999934	-79.06125000
107.87999934	-70.07660000
107.91999934	-61.09195000
107.95999934	-52.10730000
107.99999934	-44.92325000
108.03999934	-39.52757000
108.07999934	-35.93859000
108.11999934	-30.54292000
108.15999934	-16.16870000
108.19999934	-1.79448800
108.23999934	14.37422000
108.27999934	30.54292000
108.31999934	50.31281000
108.35999934	70.07660000
108.39999934	88.04590000
108.43999934	106.01520000
108.47999934	122.19000000
108.51999934	134.76970000
108.55999934	141.95990000
108.59999934	141.95990000
108.63999934	132.97520000
108.67999934	120.39550000
108.71999934	115.00600000
108.75999934	111.41090000
108.79999934	107.81580000
108.83999934	104.22070000
108.87999934	104.22070000
108.91999934	100.62560000
108.95999934	100.62560000
108.99999934	98.83114000
109.03999934	98.83114000
109.07999934	97.03055000
109.11999934	93.44157000
109.15999934	86.25141000
109.19999934	75.47227000
109.23999934	59.29746000
109.27999934	41.32816000
109.31999934	19.76379000
109.35999934	-17.96930000
109.39999934	-48.51222000
109.43999933	-64.68703000
109.47999933	-91.64098000
109.51999933	-120.39550000
109.55999933	-143.75440000
109.59999933	-140.15930000
109.63999933	-123.99060000
109.67999933	-102.42620000
109.71999933	-93.44157000
109.75999933	-86.25141000
109.79999933	-79.06125000
109.83999933	-75.47227000
109.87999933	-73.67168000
109.91999933	-71.87719000
109.95999933	-71.87719000
109.99999933	-73.67168000
110.03999933	-77.26676000
110.07999933	-80.86184000
110.11999933	-86.25141000
110.15999933	-88.04590000
110.19999933	-88.04590000
110.23999933	-80.86184000
110.27999933	-71.87719000
110.31999933	-61.09195000
110.35999933	-52.10730000
110.39999933	-44.92325000
110.43999933	-39.52757000
110.47999933	-35.93859000
110.51999933	-28.74844000
110.55999933	-19.76379000
110.59999933	-5.38956800
110.63999933	10.77914000
110.67999933	26.95395000
110.71999933	43.12265000
110.75999933	61.09195000
110.79999933	82.65633000
110.83999933	100.62560000
110.87999933	116.80040000
110.91999933	131.17470000
110.95999933	140.15930000
110.99999933	147.34950000
111.03999933	136.56420000
111.07999932	123.99060000
111.11999932	118.59490000
111.15999932	115.00600000
111.19999932	109.61030000
111.23999932	106.01520000
111.27999932	106.01520000
111.31999932	102.42620000
111.35999932	98.83114000
111.39999932	97.03055000
111.43999932	98.83114000
111.47999932	95.23605000
111.51999932	91.64098000
111.55999932	86.25141000
111.59999932	77.26676000
111.63999932	61.09195000
111.67999932	41.32816000
111.71999932	17.96930000
111.75999932	-8.98464900
111.79999932	-35.93859000
111.83999932	-64.68703000
111.87999932	-93.44157000
111.91999932	-122.19000000
111.95999932	-141.95990000
111.99999932	-158.12860000
112.03999932	-145.54890000
112.07999932	-134.76970000
112.11999932	-106.01520000
112.15999932	-95.23605000
112.19999932	-86.25141000
112.23999932	-80.86184000
112.27999932	-77.26676000
112.31999932	-75.47227000
112.35999932	-75.47227000
112.39999932	-73.67168000
112.43999932	-73.67168000
112.47999932	-79.06125000
112.51999932	-82.65633000
112.55999932	-86.25141000
112.59999932	-89.84650000
112.63999932	-86.25141000
112.67999932	-79.06125000
112.71999931	-68.28211000
112.75999931	-57.50298000
112.79999931	-50.31281000
112.83999931	-41.32816000
112.87999931	-35.93859000
112.91999931	-26.95395000
112.95999931	-21.55827000
112.99999931	-21.55827000
113.03999931	-32.34352000
113.07999931	-16.16870000
113.11999931	14.37422000
113.15999931	43.12265000
113.19999931	66.48762000
113.23999931	97.03055000
113.27999931	136.56420000
113.31999931	172.50890000
113.35999931	186.88310000
113.39999931	181.49360000
113.43999931	154.53350000
113.47999931	136.56420000
113.51999931	120.39550000
113.55999931	107.81580000
113.59999931	91.64098000
113.63999931	84.45692000
113.67999931	88.04590000
113.71999931	93.44157000
113.75999931	91.64098000
113.79999931	82.65633000
113.83999931	79.06125000
113.87999931	82.65633000
113.91999931	84.45692000
113.95999931	79.06125000
113.99999931	66.48762000
114.03999931	53.90789000
114.07999931	35.93859000
114.11999931	16.16870000
114.15999931	-10.77914000
114.19999931	-37.73308000
114.23999931	-68.28211000
114.27999931	-89.84650000
114.31999931	-111.41090000
114.35999930	-123.99060000
114.39999930	-145.54890000
114.43999930	-143.75440000
114.47999930	-129.38020000
114.51999930	-109.61030000
114.55999930	-100.62560000
114.59999930	-98.83114000
114.63999930	-89.84650000
114.67999930	-84.45692000
114.71999930	-79.06125000
114.75999930	-79.06125000
114.79999930	-77.26676000
114.83999930	-79.06125000
114.87999930	-80.86184000
114.91999930	-84.45692000
114.95999930	-89.84650000
114.99999930	-93.44157000
115.03999930	-91.64098000
115.07999930	-82.65633000
115.11999930	-68.28211000
115.15999930	-55.70238000
115.19999930	-46.71774000
115.23999930	-37.73308000
115.27999930	-32.34352000
115.31999930	-26.95395000
115.35999930	-23.35887000
115.39999930	-16.16870000
115.43999930	-7.18405700
115.47999930	3.58897700
115.51999930	17.96930000
115.55999930	34.13800000
115.59999930	53.90789000
115.63999930	73.67168000
115.67999930	95.23605000
115.71999930	115.00600000
115.75999930	131.17470000
115.79999930	143.75440000
115.83999930	149.14400000
115.87999930	136.56420000
115.91999930	122.19000000
115.95999930	115.00600000
115.99999930	115.00600000
116.03999929	113.20540000
116.07999929	106.01520000
116.11999929	100.62560000
116.15999929	98.83114000
116.19999929	95.23605000
116.23999929	93.44157000
116.27999929	93.44157000
116.31999929	93.44157000
116.35999929	88.04590000
116.39999929	80.86184000
116.43999929	66.48762000
116.47999929	43.12265000
116.51999929	16.16870000
116.55999929	-14.37422000
116.59999929	-41.32816000
116.63999929	-70.07660000
116.67999929	-98.83114000
116.71999929	-122.19000000
116.75999929	-141.95990000
116.79999929	-147.34950000
116.83999929	-156.33410000
116.87999929	-120.39550000
116.91999929	-102.42620000
116.95999929	-75.47227000
116.99999929	-79.06125000
117.03999929	-68.28211000
117.07999929	-66.48762000
117.11999929	-68.28211000
117.15999929	-70.07660000
117.19999929	-73.67168000
117.23999929	-75.47227000
117.27999929	-79.06125000
117.31999929	-86.25141000
117.35999929	-91.64098000
117.39999929	-93.44157000
117.43999929	-93.44157000
117.47999929	-84.45692000
117.51999929	-71.87719000
117.55999929	-61.09195000
117.59999929	-52.10730000
117.63999929	-44.92325000
117.67999928	-37.73308000
117.71999928	-34.13800000
117.75999928	-30.54292000
117.79999928	-23.35887000
117.83999928	-12.57363000
117.87999928	0.00000000
117.91999928	14.37422000
117.95999928	32.34352000
117.99999928	53.90789000
118.03999928	75.47227000
118.07999928	97.03055000
118.11999928	120.39550000
118.15999928	136.56420000
118.19999928	149.14400000
118.23999928	152.73900000
118.27999928	141.95990000
118.31999928	127.57960000
118.35999928	116.80040000
118.39999928	115.00600000
118.43999928	107.81580000
118.47999928	104.22070000
118.51999928	100.62560000
118.55999928	97.03055000
118.59999928	93.44157000
118.63999928	91.64098000
118.67999928	91.64098000
118.71999928	91.64098000
118.75999928	89.84650000
118.79999928	84.45692000
118.83999928	71.87719000
118.87999928	53.90789000
118.91999928	26.95395000
118.95999928	0.00000000
118.99999928	-30.54292000
119.03999928	-61.09195000
119.07999928	-89.84650000
119.11999928	-115.00600000
119.15999928	-132.97520000
119.19999928	-154.53350000
119.23999928	-158.12860000
119.27999928	-127.57960000
119.31999927	-100.62560000
119.35999927	-88.04590000
119.39999927	-82.65633000
119.43999927	-79.06125000
119.47999927	-70.07660000
119.51999927	-70.07660000
119.55999927	-75.47227000
119.59999927	-75.47227000
119.63999927	-77.26676000
119.67999927	-80.86184000
119.71999927	-86.25141000
119.75999927	-88.04590000
119.79999927	-91.64098000
119.83999927	-89.84650000
119.87999927	-82.65633000
119.91999927	-68.28211000
119.95999927	-59.29746000
119.99999927	-50.31281000
120.03999927	-43.12265000
120.07999927	-35.93859000
120.11999927	-32.34352000
120.15999927	-28.74844000
120.19999927	-19.76379000
120.23999927	-8.98464900
120.27999927	3.58897700
120.31999927	17.96930000
120.35999927	35.93859000
120.39999927	55.70238000
120.43999927	73.67168000
120.47999927	93.44157000
120.51999927	113.20540000
120.55999927	131.17470000
120.59999927	143.75440000
120.63999927	149.14400000
120.67999927	141.95990000
120.71999927	132.97520000
120.75999927	118.59490000
120.79999927	118.59490000
120.83999927	115.00600000
120.87999927	107.81580000
120.91999927	102.42620000
120.95999926	100.62560000
120.99999926	97.03055000
121.03999926	97.03055000
121.07999926	91.64098000
121.11999926	89.84650000
121.15999926	88.04590000
121.19999926	79.06125000
121.23999926	64.68703000
121.27999926	48.51222000
121.31999926	25.15336000
121.35999926	-1.79448800
121.39999926	-32.34352000
121.43999926	-61.09195000
121.47999926	-88.04590000
121.51999926	-115.00600000
121.55999926	-132.97520000
121.59999926	-145.54890000
121.63999926	-141.95990000
121.67999926	-123.99060000
121.71999926	-102.42620000
121.75999926	-89.84650000
121.79999926	-80.86184000
121.83999926	-73.67168000
121.87999926	-71.87719000
121.91999926	-71.87719000
121.95999926	-73.67168000
121.99999926	-75.47227000
122.03999926	-77.26676000
122.07999926	-80.86184000
122.11999926	-86.25141000
122.15999926	-88.04590000
122.19999926	-89.84650000
122.23999926	-88.04590000
122.27999926	-79.06125000
122.31999926	-70.07660000
122.35999926	-57.50298000
122.39999926	-52.10730000
122.43999926	-44.92325000
122.47999926	-39.52757000
122.51999926	-34.13800000
122.55999926	-30.54292000
122.59999925	-21.55827000
122.63999925	-10.77914000
122.67999925	5.38956800
122.71999925	21.55827000
122.75999925	39.52757000
122.79999925	61.09195000
122.83999925	82.65633000
122.87999925	100.62560000
122.91999925	120.39550000
122.95999925	136.56420000
122.99999925	145.54890000
123.03999925	147.34950000
123.07999925	136.56420000
123.11999925	127.57960000
123.15999925	116.80040000
123.19999925	115.00600000
123.23999925	109.61030000
123.27999925	104.22070000
123.31999925	100.62560000
123.35999925	98.83114000
123.39999925	97.03055000
123.43999925	93.44157000
123.47999925	93.44157000
123.51999925	93.44157000
123.55999925	89.84650000
123.59999925	82.65633000
123.63999925	73.67168000
123.67999925	55.70238000
123.71999925	34.13800000
123.75999925	7.18405700
123.79999925	-21.55827000
123.83999925	-50.31281000
123.87999925	-79.06125000
123.91999925	-107.81580000
123.95999925	-131.17470000
123.99999925	-143.75440000
124.03999925	-150.94450000
124.07999925	-129.38020000
124.11999925	-115.00600000
124.15999925	-79.06125000
124.19999925	-77.26676000
124.23999924	-73.67168000
124.27999924	-71.87719000
124.31999924	-68.28211000
124.35999924	-71.87719000
124.39999924	-73.67168000
124.43999924	-71.87719000
124.47999924	-75.47227000
124.51999924	-82.65633000
124.55999924	-86.25141000
124.59999924	-89.84650000
124.63999924	-88.04590000
124.67999924	-84.45692000
124.71999924	-71.87719000
124.75999924	-59.29746000
124.79999924	-50.31281000
124.83999924	-43.12265000
124.87999924	-37.73308000
124.91999924	-34.13800000
124.95999924	-28.74844000
124.99999924	-23.35887000
125.03999924	-10.77914000
125.07999924	3.58897700
125.11999924	17.96930000
125.15999924	34.13800000
125.19999924	53.90789000
125.23999924	73.67168000
125.27999924	95.23605000
125.31999924	115.00600000
125.35999924	132.97520000
125.39999924	143.75440000
125.43999924	147.34950000
125.47999924	140.15930000
125.51999924	127.57960000
125.55999924	120.39550000
125.59999924	115.00600000
125.63999924	111.41090000
125.67999924	106.01520000
125.71999924	100.62560000
125.75999924	97.03055000
125.79999924	95.23605000
125.83999924	93.44157000
125.87999923	93.44157000
125.91999923	93.44157000
125.95999923	89.84650000
125.99999923	84.45692000
126.03999923	73.67168000
126.07999923	57.50298000
126.11999923	34.13800000
126.15999923	8.98464900
126.19999923	-17.96930000
126.23999923	-44.92325000
126.27999923	-71.87719000
126.31999923	-104.22070000
126.35999923	-131.17470000
126.39999923	-147.34950000
126.43999923	-143.75440000
126.47999923	-125.78510000
126.51999923	-102.42620000
126.55999923	-88.04590000
126.59999923	-80.86184000
126.63999923	-73.67168000
126.67999923	-70.07660000
126.71999923	-70.07660000
126.75999923	-71.87719000
126.79999923	-71.87719000
126.83999923	-71.87719000
126.87999923	-77.26676000
126.91999923	-82.65633000
126.95999923	-88.04590000
126.99999923	-89.84650000
127.03999923	-89.84650000
127.07999923	-82.65633000
127.11999923	-70.07660000
127.15999923	-59.29746000
127.19999923	-50.31281000
127.23999923	-43.12265000
127.27999923	-35.93859000
127.31999923	-35.93859000
127.35999923	-30.54292000
127.39999923	-23.35887000
127.43999923	-8.98464900
127.47999923	3.58897700
127.51999923	17.96930000
127.55999922	39.52757000
127.59999922	57.50298000
127.63999922	79.06125000
127.67999922	98.83114000
127.71999922	118.59490000
127.75999922	134.76970000
127.79999922	141.95990000
127.83999922	143.75440000
127.87999922	129.38020000
127.91999922	111.41090000
127.95999922	100.62560000
127.99999922	95.23605000
128.03999922	91.64098000
128.07999922	97.03055000
128.11999922	109.61030000
128.15999922	120.39550000
128.19999922	129.38020000
128.23999922	132.97520000
128.27999922	134.76970000
128.31999922	129.38020000
128.35999922	115.00600000
128.39999922	95.23605000
128.43999922	71.87719000
128.47999922	48.51222000
128.51999922	21.55827000
128.55999922	-7.18405700
128.59999922	-35.93859000
128.63999922	-64.68703000
128.67999922	-89.84650000
128.71999922	-116.80040000
128.75999922	-140.15930000
128.79999922	-154.53350000
128.83999922	-159.92920000
128.87999922	-143.75440000
128.91999922	-120.39550000
128.95999922	-104.22070000
128.99999922	-89.84650000
129.03999922	-84.45692000
129.07999922	-84.45692000
129.11999922	-73.67168000
129.15999922	-59.29746000
129.19999921	-61.09195000
129.23999921	-64.68703000
129.27999921	-71.87719000
129.31999921	-73.67168000
129.35999921	-79.06125000
129.39999921	-89.84650000
129.43999921	-95.23605000
129.47999921	-89.84650000
129.51999921	-82.65633000
129.55999921	-71.87719000
129.59999921	-61.09195000
129.63999921	-50.31281000
129.67999921	-41.32816000
129.71999921	-34.13800000
129.75999921	-25.15336000
129.79999921	-16.16870000
129.83999921	-5.38956800
129.87999921	5.38956800
129.91999921	21.55827000
129.95999921	35.93859000
129.99999921	53.90789000
130.03999921	73.67168000
130.07999921	95.23605000
130.11999921	115.00600000
130.15999921	132.97520000
130.19999921	143.75440000
130.23999921	152.73900000
130.27999921	145.54890000
130.31999921	134.76970000
130.35999921	122.19000000
130.39999921	113.20540000
130.43999921	107.81580000
130.47999921	102.42620000
130.51999921	98.83114000
130.55999921	93.44157000
130.59999921	93.44157000
130.63999921	91.64098000
130.67999921	91.64098000
130.71999921	89.84650000
130.75999921	88.04590000
130.79999921	84.45692000
130.83999920	77.26676000
130.87999920	61.09195000
130.91999920	41.32816000
130.95999920	14.37422000
130.99999920	-14.37422000
131.03999920	-43.12265000
131.07999920	-68.28211000
131.11999920	-98.83114000
131.15999920	-123.99060000
131.19999920	-140.15930000
131.23999920	-150.94450000
131.27999920	-140.15930000
131.31999920	-122.19000000
131.35999920	-97.03055000
131.39999920	-88.04590000
131.43999920	-84.45692000
131.47999920	-79.06125000
131.51999920	-73.67168000
131.55999920	-75.47227000
131.59999920	-79.06125000
131.63999920	-79.06125000
131.67999920	-77.26676000
131.71999920	-82.65633000
131.75999920	-86.25141000
131.79999920	-88.04590000
131.83999920	-89.84650000
131.87999920	-86.25141000
131.91999920	-75.47227000
131.95999920	-64.68703000
131.99999920	-53.90789000
132.03999920	-46.71774000
132.07999920	-41.32816000
132.11999920	-35.93859000
132.15999920	-32.34352000
132.19999920	-28.74844000
132.23999920	-17.96930000
132.27999920	-3.58897700
132.31999920	10.77914000
132.35999920	25.15336000
132.39999920	43.12265000
132.43999920	62.89254000
132.47999919	84.45692000
132.51999919	106.01520000
132.55999919	125.78510000
132.59999919	138.36480000
132.63999919	149.14400000
132.67999919	143.75440000
132.71999919	138.36480000
132.75999919	123.99060000
132.79999919	120.39550000
132.83999919	116.80040000
132.87999919	111.41090000
132.91999919	104.22070000
132.95999919	100.62560000
132.99999919	98.83114000
133.03999919	95.23605000
133.07999919	93.44157000
133.11999919	93.44157000
133.15999919	93.44157000
133.19999919	86.25141000
133.23999919	79.06125000
133.27999919	64.68703000
133.31999919	43.12265000
133.35999919	17.96930000
133.39999919	-8.98464900
133.43999919	-37.73308000
133.47999919	-68.28211000
133.51999919	-97.03055000
133.55999919	-122.19000000
133.59999919	-140.15930000
133.63999919	-159.92920000
133.67999919	-143.75440000
133.71999919	-131.17470000
133.75999919	-104.22070000
133.79999919	-95.23605000
133.83999919	-84.45692000
133.87999919	-79.06125000
133.91999919	-79.06125000
133.95999919	-80.86184000
133.99999919	-80.86184000
134.03999919	-80.86184000
134.07999919	-80.86184000
134.11999918	-86.25141000
134.15999918	-93.44157000
134.19999918	-95.23605000
134.23999918	-97.03055000
134.27999918	-91.64098000
134.31999918	-84.45692000
134.35999918	-71.87719000
134.39999918	-61.09195000
134.43999918	-50.31281000
134.47999918	-43.12265000
134.51999918	-37.73308000
134.55999918	-32.34352000
134.59999918	-26.95395000
134.63999918	-16.16870000
134.67999918	-5.38956800
134.71999918	7.18405700
134.75999918	21.55827000
134.79999918	35.93859000
134.83999918	52.10730000
134.87999918	70.07660000
134.91999918	86.25141000
134.95999918	104.22070000
134.99999918	120.39550000
135.03999918	132.97520000
135.07999918	141.95990000
135.11999918	145.54890000
135.15999918	136.56420000
135.19999918	127.57960000
135.23999918	116.80040000
135.27999918	113.20540000
135.31999918	107.81580000
135.35999918	102.42620000
135.39999918	100.62560000
135.43999918	97.03055000
135.47999918	95.23605000
135.51999918	91.64098000
135.55999918	88.04590000
135.59999918	82.65633000
135.63999918	75.47227000
135.67999918	62.89254000
135.71999918	46.71774000
135.75999917	23.35887000
135.79999917	-3.58897700
135.83999917	-30.54292000
135.87999917	-55.70238000
135.91999917	-82.65633000
135.95999917	-115.00600000
135.99999917	-136.56420000
136.03999917	-150.94450000
136.07999917	-145.54890000
136.11999917	-136.56420000
136.15999917	-116.80040000
136.19999917	-97.03055000
136.23999917	-80.86184000
136.27999917	-71.87719000
136.31999917	-70.07660000
136.35999917	-71.87719000
136.39999917	-71.87719000
136.43999917	-73.67168000
136.47999917	-77.26676000
136.51999917	-80.86184000
136.55999917	-86.25141000
136.59999917	-89.84650000
136.63999917	-93.44157000
136.67999917	-91.64098000
136.71999917	-86.25141000
136.75999917	-79.06125000
136.79999917	-66.48762000
136.83999917	-57.50298000
136.87999917	-50.31281000
136.91999917	-44.92325000
136.95999917	-39.52757000
136.99999917	-35.93859000
137.03999917	-30.54292000
137.07999917	-23.35887000
137.11999917	-7.18405700
137.15999917	7.18405700
137.19999917	25.15336000
137.23999917	44.92325000
137.27999917	68.28211000
137.31999917	89.84650000
137.35999917	111.41090000
137.39999916	131.17470000
137.43999916	141.95990000
137.47999916	156.33410000
137.51999916	145.54890000
137.55999916	138.36480000
137.59999916	123.99060000
137.63999916	120.39550000
137.67999916	113.20540000
137.71999916	107.81580000
137.75999916	102.42620000
137.79999916	98.83114000
137.83999916	97.03055000
137.87999916	93.44157000
137.91999916	91.64098000
137.95999916	91.64098000
137.99999916	89.84650000
138.03999916	84.45692000
138.07999916	75.47227000
138.11999916	59.29746000
138.15999916	35.93859000
138.19999916	7.18405700
138.23999916	-23.35887000
138.27999916	-52.10730000
138.31999916	-82.65633000
138.35999916	-111.41090000
138.39999916	-136.56420000
138.43999916	-145.54890000
138.47999916	-168.91380000
138.51999916	-131.17470000
138.55999916	-115.00600000
138.59999916	-79.06125000
138.63999916	-79.06125000
138.67999916	-68.28211000
138.71999916	-66.48762000
138.75999916	-64.68703000
138.79999916	-70.07660000
138.83999916	-71.87719000
138.87999916	-71.87719000
138.91999916	-86.25141000
138.95999916	-93.44157000
138.99999916	-82.65633000
139.03999915	-84.45692000
139.07999915	-93.44157000
139.11999915	-89.84650000
139.15999915	-77.26676000
139.19999915	-59.29746000
139.23999915	-50.31281000
139.27999915	-46.71774000
139.31999915	-35.93859000
139.35999915	-37.73308000
139.39999915	-32.34352000
139.43999915	-34.13800000
139.47999915	-16.16870000
139.51999915	-7.18405700
139.55999915	8.98464900
139.59999915	26.95395000
139.63999915	48.51222000
139.67999915	70.07660000
139.71999915	91.64098000
139.75999915	113.20540000
139.79999915	134.76970000
139.83999915	143.75440000
139.87999915	156.33410000
139.91999915	147.34950000
139.95999915	134.76970000
139.99999915	120.39550000
140.03999915	118.59490000
140.07999915	113.20540000
140.11999915	107.81580000
140.15999915	102.42620000
140.19999915	98.83114000
140.23999915	97.03055000
140.27999915	95.23605000
140.31999915	93.44157000
140.35999915	93.44157000
140.39999915	91.64098000
140.43999915	86.25141000
140.47999915	77.26676000
140.51999915	59.29746000
140.55999915	35.93859000
140.59999915	7.18405700
140.63999915	-21.55827000
140.67999915	-50.31281000
140.71999914	-79.06125000
140.75999914	-107.81580000
140.79999914	-129.38020000
140.83999914	-143.75440000
140.87999914	-149.14400000
140.91999914	-122.19000000
140.95999914	-102.42620000
140.99999914	-79.06125000
141.03999914	-77.26676000
141.07999914	-71.87719000
141.11999914	-66.48762000
141.15999914	-64.68703000
141.19999914	-68.28211000
141.23999914	-71.87719000
141.27999914	-73.67168000
141.31999914	-77.26676000
141.35999914	-80.86184000
141.39999914	-86.25141000
141.43999914	-88.04590000
141.47999914	-88.04590000
141.51999914	-80.86184000
141.55999914	-70.07660000
141.59999914	-59.29746000
141.63999914	-50.31281000
141.67999914	-43.12265000
141.71999914	-37.73308000
141.75999914	-30.54292000
141.79999914	-32.34352000
141.83999914	-23.35887000
141.87999914	-14.37422000
141.91999914	1.79448800
141.95999914	16.16870000
141.99999914	35.93859000
142.03999914	55.70238000
142.07999914	79.06125000
142.11999914	98.83114000
142.15999914	118.59490000
142.19999914	134.76970000
142.23999914	145.54890000
142.27999914	150.94450000
142.31999914	143.75440000
142.35999913	129.38020000
142.39999913	118.59490000
142.43999913	115.00600000
142.47999913	111.41090000
142.51999913	104.22070000
142.55999913	102.42620000
142.59999913	100.62560000
142.63999913	98.83114000
142.67999913	97.03055000
142.71999913	97.03055000
142.75999913	97.03055000
142.79999913	93.44157000
142.83999913	89.84650000
142.87999913	79.06125000
142.91999913	61.09195000
142.95999913	39.52757000
142.99999913	12.57363000
143.03999913	-16.16870000
143.07999913	-44.92325000
143.11999913	-73.67168000
143.15999913	-104.22070000
143.19999913	-129.38020000
143.23999913	-141.95990000
143.27999913	-147.34950000
143.31999913	-127.57960000
143.35999913	-102.42620000
143.39999913	-86.25141000
143.43999913	-80.86184000
143.47999913	-77.26676000
143.51999913	-70.07660000
143.55999913	-70.07660000
143.59999913	-70.07660000
143.63999913	-71.87719000
143.67999913	-71.87719000
143.71999913	-75.47227000
143.75999913	-82.65633000
143.79999913	-89.84650000
143.83999913	-88.04590000
143.87999913	-88.04590000
143.91999913	-79.06125000
143.95999913	-64.68703000
143.99999912	-57.50298000
144.03999912	-48.51222000
144.07999912	-43.12265000
144.11999912	-34.13800000
144.15999912	-28.74844000
144.19999912	-28.74844000
144.23999912	-19.76379000
144.27999912	-7.18405700
144.31999912	8.98464900
144.35999912	21.55827000
144.39999912	41.32816000
144.43999912	61.09195000
144.47999912	80.86184000
144.51999912	102.42620000
144.55999912	122.19000000
144.59999912	136.56420000
144.63999912	145.54890000
144.67999912	145.54890000
144.71999912	136.56420000
144.75999912	125.78510000
144.79999912	120.39550000
144.83999912	115.00600000
144.87999912	111.41090000
144.91999912	106.01520000
144.95999912	102.42620000
144.99999912	100.62560000
145.03999912	98.83114000
145.07999912	97.03055000
145.11999912	97.03055000
145.15999912	97.03055000
145.19999912	93.44157000
145.23999912	86.25141000
145.27999912	77.26676000
145.31999912	59.29746000
145.35999912	37.73308000
145.39999912	12.57363000
145.43999912	-16.16870000
145.47999912	-44.92325000
145.51999912	-75.47227000
145.55999912	-104.22070000
145.59999912	-127.57960000
145.63999911	-150.94450000
145.67999911	-150.94450000
145.71999911	-138.36480000
145.75999911	-120.39550000
145.79999911	-102.42620000
145.83999911	-86.25141000
145.87999911	-71.87719000
145.91999911	-70.07660000
145.95999911	-68.28211000
145.99999911	-71.87719000
146.03999911	-71.87719000
146.07999911	-70.07660000
146.11999911	-73.67168000
146.15999911	-80.86184000
146.19999911	-86.25141000
146.23999911	-89.84650000
146.27999911	-88.04590000
146.31999911	-82.65633000
146.35999911	-73.67168000
146.39999911	-62.89254000
146.43999911	-52.10730000
146.47999911	-43.12265000
146.51999911	-35.93859000
146.55999911	-34.13800000
146.59999911	-26.95395000
146.63999911	-17.96930000
146.67999911	-5.38956800
146.71999911	7.18405700
146.75999911	25.15336000
146.79999911	41.32816000
146.83999911	59.29746000
146.87999911	79.06125000
146.91999911	97.03055000
146.95999911	116.80040000
146.99999911	132.97520000
147.03999911	147.34950000
147.07999911	145.54890000
147.11999911	140.15930000
147.15999911	127.57960000
147.19999911	118.59490000
147.23999911	115.00600000
147.27999910	113.20540000
147.31999910	106.01520000
147.35999910	104.22070000
147.39999910	102.42620000
147.43999910	98.83114000
147.47999910	93.44157000
147.51999910	93.44157000
147.55999910	93.44157000
147.59999910	88.04590000
147.63999910	82.65633000
147.67999910	70.07660000
147.71999910	52.10730000
147.75999910	28.74844000
147.79999910	1.79448800
147.83999910	-25.15336000
147.87999910	-53.90789000
147.91999910	-82.65633000
147.95999910	-109.61030000
147.99999910	-129.38020000
148.03999910	-145.54890000
148.07999910	-147.34950000
148.11999910	-134.76970000
148.15999910	-115.00600000
148.19999910	-98.83114000
148.23999910	-84.45692000
148.27999910	-77.26676000
148.31999910	-71.87719000
148.35999910	-71.87719000
148.39999910	-71.87719000
148.43999910	-71.87719000
148.47999910	-73.67168000
148.51999910	-75.47227000
148.55999910	-79.06125000
148.59999910	-84.45692000
148.63999910	-88.04590000
148.67999910	-86.25141000
148.71999910	-77.26676000
148.75999910	-79.06125000
148.79999910	-70.07660000
148.83999910	-43.12265000
148.87999910	-35.93859000
148.91999909	-35.93859000
148.95999909	-35.93859000
148.99999909	-28.74844000
149.03999909	-19.76379000
149.07999909	-8.98464900
149.11999909	1.79448800
149.15999909	17.96930000
149.19999909	35.93859000
149.23999909	55.70238000
149.27999909	75.47227000
149.31999909	97.03055000
149.35999909	116.80040000
149.39999909	132.97520000
149.43999909	149.14400000
149.47999909	150.94450000
149.51999909	143.75440000
149.55999909	129.38020000
149.59999909	122.19000000
149.63999909	118.59490000
149.67999909	113.20540000
149.71999909	106.01520000
149.75999909	102.42620000
149.79999909	98.83114000
149.83999909	93.44157000
149.87999909	91.64098000
149.91999909	91.64098000
149.95999909	91.64098000
149.99999909	89.84650000
150.03999909	82.65633000
150.07999909	73.67168000
150.11999909	55.70238000
150.15999909	32.34352000
150.19999909	3.58897700
150.23999909	-25.15336000
150.27999909	-55.70238000
150.31999909	-84.45692000
150.35999909	-113.20540000
150.39999909	-132.97520000
150.43999909	-145.54890000
150.47999909	-150.94450000
150.51999909	-116.80040000
150.55999908	-95.23605000
150.59999908	-77.26676000
150.63999908	-73.67168000
150.67999908	-66.48762000
150.71999908	-66.48762000
150.75999908	-66.48762000
150.79999908	-66.48762000
150.83999908	-68.28211000
150.87999908	-71.87719000
150.91999908	-79.06125000
150.95999908	-82.65633000
150.99999908	-86.25141000
151.03999908	-89.84650000
151.07999908	-89.84650000
151.11999908	-82.65633000
151.15999908	-66.48762000
151.19999908	-57.50298000
151.23999908	-50.31281000
151.27999908	-41.32816000
151.31999908	-35.93859000
151.35999908	-32.34352000
151.39999908	-28.74844000
151.43999908	-17.96930000
151.47999908	-3.58897700
151.51999908	8.98464900
151.55999908	26.95395000
151.59999908	44.92325000
151.63999908	64.68703000
151.67999908	86.25141000
151.71999908	106.01520000
151.75999908	125.78510000
151.79999908	138.36480000
151.83999908	147.34950000
151.87999908	141.95990000
151.91999908	134.76970000
151.95999908	122.19000000
151.99999908	120.39550000
152.03999908	115.00600000
152.07999908	111.41090000
152.11999908	106.01520000
152.15999908	102.42620000
152.19999908	100.62560000
152.23999907	98.83114000
152.27999907	97.03055000
152.31999907	98.83114000
152.35999907	97.03055000
152.39999907	93.44157000
152.43999907	86.25141000
152.47999907	73.67168000
152.51999907	55.70238000
152.55999907	32.34352000
152.59999907	5.38956800
152.63999907	-23.35887000
152.67999907	-52.10730000
152.71999907	-84.45692000
152.75999907	-113.20540000
152.79999907	-138.36480000
152.83999907	-154.53350000
152.87999907	-158.12860000
152.91999907	-140.15930000
152.95999907	-111.41090000
152.99999907	-80.86184000
153.03999907	-79.06125000
153.07999907	-79.06125000
153.11999907	-73.67168000
153.15999907	-70.07660000
153.19999907	-71.87719000
153.23999907	-75.47227000
153.27999907	-71.87719000
153.31999907	-75.47227000
153.35999907	-82.65633000
153.39999907	-88.04590000
153.43999907	-91.64098000
153.47999907	-89.84650000
153.51999907	-84.45692000
153.55999907	-71.87719000
153.59999907	-59.29746000
153.63999907	-50.31281000
153.67999907	-41.32816000
153.71999907	-32.34352000
153.75999907	-26.95395000
153.79999907	-21.55827000
153.83999907	-16.16870000
153.87999906	-1.79448800
153.91999906	14.37422000
153.95999906	28.74844000
153.99999906	46.71774000
154.03999906	64.68703000
154.07999906	84.45692000
154.11999906	106.01520000
154.15999906	125.78510000
154.19999906	138.36480000
154.23999906	149.14400000
154.27999906	141.95990000
154.31999906	132.97520000
154.35999906	122.19000000
154.39999906	120.39550000
154.43999906	115.00600000
154.47999906	109.61030000
154.51999906	106.01520000
154.55999906	100.62560000
154.59999906	97.03055000
154.63999906	89.84650000
154.67999906	84.45692000
154.71999906	80.86184000
154.75999906	77.26676000
154.79999906	70.07660000
154.83999906	64.68703000
154.87999906	64.68703000
154.91999906	61.09195000
154.95999906	43.12265000
154.99999906	19.76379000
155.03999906	0.00000000
155.07999906	-23.35887000
155.11999906	-61.09195000
155.15999906	-102.42620000
155.19999906	-134.76970000
155.23999906	-158.12860000
155.27999906	-159.92920000
155.31999906	-140.15930000
155.35999906	-122.19000000
155.39999906	-104.22070000
155.43999906	-100.62560000
155.47999906	-88.04590000
155.51999905	-80.86184000
155.55999905	-80.86184000
155.59999905	-84.45692000
155.63999905	-86.25141000
155.67999905	-82.65633000
155.71999905	-84.45692000
155.75999905	-89.84650000
155.79999905	-93.44157000
155.83999905	-93.44157000
155.87999905	-86.25141000
155.91999905	-75.47227000
155.95999905	-62.89254000
155.99999905	-50.31281000
156.03999905	-39.52757000
156.07999905	-32.34352000
156.11999905	-26.95395000
156.15999905	-25.15336000
156.19999905	-25.15336000
156.23999905	-19.76379000
156.27999905	-10.77914000
156.31999905	3.58897700
156.35999905	14.37422000
156.39999905	32.34352000
156.43999905	53.90789000
156.47999905	77.26676000
156.51999905	97.03055000
156.55999905	115.00600000
156.59999905	131.17470000
156.63999905	143.75440000
156.67999905	147.34950000
156.71999905	138.36480000
156.75999905	123.99060000
156.79999905	116.80040000
156.83999905	115.00600000
156.87999905	115.00600000
156.91999905	111.41090000
156.95999905	107.81580000
156.99999905	106.01520000
157.03999905	104.22070000
157.07999905	100.62560000
157.11999905	95.23605000
157.15999904	91.64098000
157.19999904	86.25141000
157.23999904	77.26676000
157.27999904	62.89254000
157.31999904	46.71774000
157.35999904	21.55827000
157.39999904	-5.38956800
157.43999904	-30.54292000
157.47999904	-59.29746000
157.51999904	-89.84650000
157.55999904	-113.20540000
157.59999904	-132.97520000
157.63999904	-141.95990000
157.67999904	-141.95990000
157.71999904	-123.99060000
157.75999904	-107.81580000
157.79999904	-89.84650000
157.83999904	-80.86184000
157.87999904	-75.47227000
157.91999904	-70.07660000
157.95999904	-71.87719000
157.99999904	-71.87719000
158.03999904	-71.87719000
158.07999904	-73.67168000
158.11999904	-79.06125000
158.15999904	-84.45692000
158.19999904	-88.04590000
158.23999904	-91.64098000
158.27999904	-89.84650000
158.31999904	-84.45692000
158.35999904	-73.67168000
158.39999904	-61.09195000
158.43999904	-52.10730000
158.47999904	-43.12265000
158.51999904	-35.93859000
158.55999904	-30.54292000
158.59999904	-35.93859000
158.63999904	-28.74844000
158.67999904	-1.79448800
158.71999904	10.77914000
158.75999904	21.55827000
158.79999903	35.93859000
158.83999903	55.70238000
158.87999903	79.06125000
158.91999903	100.62560000
158.95999903	118.59490000
158.99999903	136.56420000
159.03999903	147.34950000
159.07999903	149.14400000
159.11999903	138.36480000
159.15999903	129.38020000
159.19999903	116.80040000
159.23999903	115.00600000
159.27999903	111.41090000
159.31999903	106.01520000
159.35999903	100.62560000
159.39999903	97.03055000
159.43999903	95.23605000
159.47999903	93.44157000
159.51999903	91.64098000
159.55999903	93.44157000
159.59999903	89.84650000
159.63999903	84.45692000
159.67999903	71.87719000
159.71999903	57.50298000
159.75999903	32.34352000
159.79999903	5.38956800
159.83999903	-25.15336000
159.87999903	-53.90789000
159.91999903	-86.25141000
159.95999903	-115.00600000
159.99999903	-138.36480000
160.03999903	-149.14400000
160.07999903	-156.33410000
160.11999903	-134.76970000
160.15999903	-109.61030000
160.19999903	-89.84650000
160.23999903	-86.25141000
160.27999903	-79.06125000
160.31999903	-73.67168000
160.35999903	-71.87719000
160.39999903	-73.67168000
160.43999902	-77.26676000
160.47999902	-79.06125000
160.51999902	-79.06125000
160.55999902	-82.65633000
160.59999902	-88.04590000
160.63999902	-91.64098000
160.67999902	-91.64098000
160.71999902	-80.86184000
160.75999902	-68.28211000
160.79999902	-59.29746000
160.83999902	-50.31281000
160.87999902	-39.52757000
160.91999902	-34.13800000
160.95999902	-28.74844000
160.99999902	-25.15336000
161.03999902	-16.16870000
161.07999902	-5.38956800
161.11999902	7.18405700
161.15999902	21.55827000
161.19999902	35.93859000
161.23999902	55.70238000
161.27999902	75.47227000
161.31999902	93.44157000
161.35999902	115.00600000
161.39999902	131.17470000
161.43999902	143.75440000
161.47999902	149.14400000
161.51999902	141.95990000
161.55999902	129.38020000
161.59999902	120.39550000
161.63999902	118.59490000
161.67999902	113.20540000
161.71999902	107.81580000
161.75999902	102.42620000
161.79999902	98.83114000
161.83999902	93.44157000
161.87999902	91.64098000
161.91999902	89.84650000
161.95999902	89.84650000
161.99999902	86.25141000
162.03999902	80.86184000
162.07999901	68.28211000
162.11999901	52.10730000
162.15999901	28.74844000
162.19999901	1.79448800
162.23999901	-28.74844000
162.27999901	-55.70238000
162.31999901	-86.25141000
162.35999901	-113.20540000
162.39999901	-136.56420000
162.43999901	-150.94450000
162.47999901	-150.94450000
162.51999901	-138.36480000
162.55999901	-118.59490000
162.59999901	-100.62560000
162.63999901	-93.44157000
162.67999901	-86.25141000
162.71999901	-77.26676000
162.75999901	-77.26676000
162.79999901	-77.26676000
162.83999901	-79.06125000
162.87999901	-79.06125000
162.91999901	-86.25141000
162.95999901	-88.04590000
162.99999901	-93.44157000
163.03999901	-93.44157000
163.07999901	-93.44157000
163.11999901	-86.25141000
163.15999901	-75.47227000
163.19999901	-62.89254000
163.23999901	-52.10730000
163.27999901	-44.92325000
163.31999901	-35.93859000
163.35999901	-28.74844000
163.39999901	-25.15336000
163.43999901	-17.96930000
163.47999901	-10.77914000
163.51999901	5.38956800
163.55999901	17.96930000
163.59999901	35.93859000
163.63999901	53.90789000
163.67999901	70.07660000
163.71999900	89.84650000
163.75999900	107.81580000
163.79999900	127.57960000
163.83999900	140.15930000
163.87999900	147.34950000
163.91999900	143.75440000
163.95999900	132.97520000
163.99999900	122.19000000
164.03999900	115.00600000
164.07999900	111.41090000
164.11999900	107.81580000
164.15999900	102.42620000
164.19999900	98.83114000
164.23999900	95.23605000
164.27999900	93.44157000
164.31999900	91.64098000
164.35999900	89.84650000
164.39999900	86.25141000
164.43999900	79.06125000
164.47999900	70.07660000
164.51999900	53.90789000
164.55999900	30.54292000
164.59999900	3.58897700
164.63999900	-25.15336000
164.67999900	-53.90789000
164.71999900	-82.65633000
164.75999900	-111.41090000
164.79999900	-134.76970000
164.83999900	-150.94450000
164.87999900	-158.12860000
164.91999900	-147.34950000
164.95999900	-120.39550000
164.99999900	-98.83114000
165.03999900	-79.06125000
165.07999900	-71.87719000
165.11999900	-71.87719000
165.15999900	-75.47227000
165.19999900	-77.26676000
165.23999900	-75.47227000
165.27999900	-77.26676000
165.31999900	-80.86184000
165.35999900	-88.04590000
165.39999899	-91.64098000
165.43999899	-93.44157000
165.47999899	-93.44157000
165.51999899	-93.44157000
165.55999899	-84.45692000
165.59999899	-71.87719000
165.63999899	-57.50298000
165.67999899	-46.71774000
165.71999899	-41.32816000
165.75999899	-35.93859000
165.79999899	-28.74844000
165.83999899	-23.35887000
165.87999899	-14.37422000
165.91999899	-1.79448800
165.95999899	12.57363000
165.99999899	26.95395000
166.03999899	46.71774000
166.07999899	64.68703000
166.11999899	86.25141000
166.15999899	106.01520000
166.19999899	127.57960000
166.23999899	138.36480000
166.27999899	150.94450000
166.31999899	145.54890000
166.35999899	136.56420000
166.39999899	122.19000000
166.43999899	120.39550000
166.47999899	113.20540000
166.51999899	109.61030000
166.55999899	104.22070000
166.59999899	100.62560000
166.63999899	97.03055000
166.67999899	93.44157000
166.71999899	91.64098000
166.75999899	91.64098000
166.79999899	89.84650000
166.83999899	84.45692000
166.87999899	75.47227000
166.91999899	61.09195000
166.95999899	39.52757000
166.99999899	12.57363000
167.03999898	-16.16870000
167.07999898	-44.92325000
167.11999898	-73.67168000
167.15999898	-104.22070000
167.19999898	-129.38020000
167.23999898	-147.34950000
167.27999898	-154.53350000
167.31999898	-141.95990000
167.35999898	-123.99060000
167.39999898	-98.83114000
167.43999898	-86.25141000
167.47999898	-79.06125000
167.51999898	-73.67168000
167.55999898	-71.87719000
167.59999898	-73.67168000
167.63999898	-75.47227000
167.67999898	-75.47227000
167.71999898	-79.06125000
167.75999898	-82.65633000
167.79999898	-88.04590000
167.83999898	-89.84650000
167.87999898	-93.44157000
167.91999898	-88.04590000
167.95999898	-79.06125000
167.99999898	-64.68703000
168.03999898	-55.70238000
168.07999898	-46.71774000
168.11999898	-41.32816000
168.15999898	-35.93859000
168.19999898	-34.13800000
168.23999898	-30.54292000
168.27999898	-21.55827000
168.31999898	-7.18405700
168.35999898	8.98464900
168.39999898	28.74844000
168.43999898	37.73308000
168.47999898	53.90789000
168.51999898	89.84650000
168.55999898	115.00600000
168.59999898	129.38020000
168.63999898	140.15930000
168.67999897	150.94450000
168.71999897	149.14400000
168.75999897	138.36480000
168.79999897	122.19000000
168.83999897	116.80040000
168.87999897	115.00600000
168.91999897	107.81580000
168.95999897	102.42620000
168.99999897	100.62560000
169.03999897	97.03055000
169.07999897	91.64098000
169.11999897	91.64098000
169.15999897	93.44157000
169.19999897	93.44157000
169.23999897	86.25141000
169.27999897	79.06125000
169.31999897	66.48762000
169.35999897	44.92325000
169.39999897	16.16870000
169.43999897	-10.77914000
169.47999897	-41.32816000
169.51999897	-71.87719000
169.55999897	-100.62560000
169.59999897	-129.38020000
169.63999897	-141.95990000
169.67999897	-161.72370000
169.71999897	-132.97520000
169.75999897	-120.39550000
169.79999897	-86.25141000
169.83999897	-86.25141000
169.87999897	-73.67168000
169.91999897	-70.07660000
169.95999897	-68.28211000
169.99999897	-66.48762000
170.03999897	-73.67168000
170.07999897	-71.87719000
170.11999897	-77.26676000
170.15999897	-86.25141000
170.19999897	-89.84650000
170.23999897	-91.64098000
170.27999897	-91.64098000
170.31999896	-88.04590000
170.35999896	-79.06125000
170.39999896	-66.48762000
170.43999896	-53.90789000
170.47999896	-44.92325000
170.51999896	-39.52757000
170.55999896	-37.73308000
170.59999896	-32.34352000
170.63999896	-28.74844000
170.67999896	-16.16870000
170.71999896	-5.38956800
170.75999896	7.18405700
170.79999896	26.95395000
170.83999896	44.92325000
170.87999896	68.28211000
170.91999896	88.04590000
170.95999896	107.81580000
170.99999896	129.38020000
171.03999896	140.15930000
171.07999896	149.14400000
171.11999896	143.75440000
171.15999896	134.76970000
171.19999896	122.19000000
171.23999896	118.59490000
171.27999896	113.20540000
171.31999896	107.81580000
171.35999896	102.42620000
171.39999896	98.83114000
171.43999896	98.83114000
171.47999896	95.23605000
171.51999896	95.23605000
171.55999896	97.03055000
171.59999896	93.44157000
171.63999896	89.84650000
171.67999896	79.06125000
171.71999896	66.48762000
171.75999896	44.92325000
171.79999896	19.76379000
171.83999896	-8.98464900
171.87999896	-37.73308000
171.91999896	-66.48762000
171.95999895	-97.03055000
171.99999895	-123.99060000
172.03999895	-138.36480000
172.07999895	-149.14400000
172.11999895	-136.56420000
172.15999895	-115.00600000
172.19999895	-93.44157000
172.23999895	-84.45692000
172.27999895	-75.47227000
172.31999895	-71.87719000
172.35999895	-71.87719000
172.39999895	-68.28211000
172.43999895	-70.07660000
172.47999895	-68.28211000
172.51999895	-73.67168000
172.55999895	-79.06125000
172.59999895	-84.45692000
172.63999895	-86.25141000
172.67999895	-89.84650000
172.71999895	-84.45692000
172.75999895	-73.67168000
172.79999895	-62.89254000
172.83999895	-53.90789000
172.87999895	-44.92325000
172.91999895	-39.52757000
172.95999895	-34.13800000
172.99999895	-30.54292000
173.03999895	-23.35887000
173.07999895	-14.37422000
173.11999895	-1.79448800
173.15999895	14.37422000
173.19999895	30.54292000
173.23999895	50.31281000
173.27999895	71.87719000
173.31999895	88.04590000
173.35999895	111.41090000
173.39999895	129.38020000
173.43999895	143.75440000
173.47999895	150.94450000
173.51999895	145.54890000
173.55999895	134.76970000
173.59999894	122.19000000
173.63999894	118.59490000
173.67999894	115.00600000
173.71999894	109.61030000
173.75999894	104.22070000
173.79999894	100.62560000
173.83999894	98.83114000
173.87999894	93.44157000
173.91999894	93.44157000
173.95999894	93.44157000
173.99999894	93.44157000
174.03999894	88.04590000
174.07999894	79.06125000
174.11999894	64.68703000
174.15999894	43.12265000
174.19999894	16.16870000
174.23999894	-10.77914000
174.27999894	-39.52757000
174.31999894	-70.07660000
174.35999894	-98.83114000
174.39999894	-122.19000000
174.43999894	-138.36480000
174.47999894	-143.75440000
174.51999894	-127.57960000
174.55999894	-100.62560000
174.59999894	-86.25141000
174.63999894	-80.86184000
174.67999894	-75.47227000
174.71999894	-68.28211000
174.75999894	-68.28211000
174.79999894	-71.87719000
174.83999894	-70.07660000
174.87999894	-70.07660000
174.91999894	-68.28211000
174.95999894	-79.06125000
174.99999894	-88.04590000
175.03999894	-91.64098000
175.07999894	-88.04590000
175.11999894	-80.86184000
175.15999894	-70.07660000
175.19999894	-61.09195000
175.23999893	-50.31281000
175.27999893	-41.32816000
175.31999893	-35.93859000
175.35999893	-30.54292000
175.39999893	-28.74844000
175.43999893	-17.96930000
175.47999893	-7.18405700
175.51999893	8.98464900
175.55999893	21.55827000
175.59999893	41.32816000
175.63999893	61.09195000
175.67999893	80.86184000
175.71999893	100.62560000
175.75999893	116.80040000
175.79999893	132.97520000
175.83999893	143.75440000
175.87999893	143.75440000
175.91999893	140.15930000
175.95999893	127.57960000
175.99999893	120.39550000
176.03999893	118.59490000
176.07999893	113.20540000
176.11999893	106.01520000
176.15999893	104.22070000
176.19999893	100.62560000
176.23999893	98.83114000
176.27999893	97.03055000
176.31999893	97.03055000
176.35999893	93.44157000
176.39999893	91.64098000
176.43999893	84.45692000
176.47999893	75.47227000
176.51999893	59.29746000
176.55999893	35.93859000
176.59999893	12.57363000
176.63999893	-14.37422000
176.67999893	-41.32816000
176.71999893	-62.89254000
176.75999893	-71.87719000
176.79999893	-93.44157000
176.83999893	-129.38020000
176.87999893	-159.92920000
176.91999892	-152.73900000
176.95999892	-127.57960000
176.99999892	-131.17470000
177.03999892	-132.97520000
177.07999892	-127.57960000
177.11999892	-102.42620000
177.15999892	-82.65633000
177.19999892	-73.67168000
177.23999892	-75.47227000
177.27999892	-70.07660000
177.31999892	-57.50298000
177.35999892	-59.29746000
177.39999892	-73.67168000
177.43999892	-86.25141000
177.47999892	-84.45692000
177.51999892	-73.67168000
177.55999892	-62.89254000
177.59999892	-57.50298000
177.63999892	-48.51222000
177.67999892	-39.52757000
177.71999892	-28.74844000
177.75999892	-28.74844000
177.79999892	-25.15336000
177.83999892	-19.76379000
177.87999892	-5.38956800
177.91999892	1.79448800
177.95999892	17.96930000
177.99999892	30.54292000
178.03999892	43.12265000
178.07999892	62.89254000
178.11999892	84.45692000
178.15999892	109.61030000
178.19999892	132.97520000
178.23999892	149.14400000
178.27999892	147.34950000
178.31999892	141.95990000
178.35999892	145.54890000
178.39999892	134.76970000
178.43999892	120.39550000
178.47999892	111.41090000
178.51999892	104.22070000
178.55999891	102.42620000
178.59999891	100.62560000
178.63999891	93.44157000
178.67999891	93.44157000
178.71999891	93.44157000
178.75999891	93.44157000
178.79999891	86.25141000
178.83999891	79.06125000
178.87999891	62.89254000
178.91999891	43.12265000
178.95999891	16.16870000
178.99999891	-10.77914000
179.03999891	-37.73308000
179.07999891	-62.89254000
179.11999891	-86.25141000
179.15999891	-111.41090000
179.19999891	-129.38020000
179.23999891	-140.15930000
179.27999891	-140.15930000
179.31999891	-125.78510000
179.35999891	-100.62560000
179.39999891	-88.04590000
179.43999891	-79.06125000
179.47999891	-75.47227000
179.51999891	-68.28211000
179.55999891	-71.87719000
179.59999891	-73.67168000
179.63999891	-77.26676000
179.67999891	-79.06125000
179.71999891	-82.65633000
179.75999891	-86.25141000
179.79999891	-91.64098000
179.83999891	-93.44157000
179.87999891	-89.84650000
179.91999891	-86.25141000
179.95999891	-75.47227000
179.99999891	-64.68703000
180.03999891	-53.90789000
180.07999891	-48.51222000
180.11999891	-37.73308000
180.15999891	-30.54292000
180.19999890	-26.95395000
180.23999890	-19.76379000
180.27999890	-8.98464900
180.31999890	5.38956800
180.35999890	19.76379000
180.39999890	35.93859000
180.43999890	53.90789000
180.47999890	73.67168000
180.51999890	93.44157000
180.55999890	113.20540000
180.59999890	129.38020000
180.63999890	143.75440000
180.67999890	149.14400000
180.71999890	141.95990000
180.75999890	129.38020000
180.79999890	118.59490000
180.83999890	113.20540000
180.87999890	111.41090000
180.91999890	104.22070000
180.95999890	100.62560000
180.99999890	98.83114000
181.03999890	97.03055000
181.07999890	93.44157000
181.11999890	93.44157000
181.15999890	93.44157000
181.19999890	89.84650000
181.23999890	84.45692000
181.27999890	71.87719000
181.31999890	55.70238000
181.35999890	28.74844000
181.39999890	0.00000000
181.43999890	-28.74844000
181.47999890	-59.29746000
181.51999890	-88.04590000
181.55999890	-115.00600000
181.59999890	-134.76970000
181.63999890	-147.34950000
181.67999890	-145.54890000
181.71999890	-129.38020000
181.75999890	-109.61030000
181.79999890	-93.44157000
181.83999889	-77.26676000
181.87999889	-68.28211000
181.91999889	-64.68703000
181.95999889	-64.68703000
181.99999889	-66.48762000
182.03999889	-68.28211000
182.07999889	-73.67168000
182.11999889	-77.26676000
182.15999889	-82.65633000
182.19999889	-86.25141000
182.23999889	-88.04590000
182.27999889	-86.25141000
182.31999889	-79.06125000
182.35999889	-70.07660000
182.39999889	-59.29746000
182.43999889	-52.10730000
182.47999889	-43.12265000
182.51999889	-35.93859000
182.55999889	-34.13800000
182.59999889	-28.74844000
182.63999889	-19.76379000
182.67999889	-7.18405700
182.71999889	7.18405700
182.75999889	23.35887000
182.79999889	43.12265000
182.83999889	62.89254000
182.87999889	82.65633000
182.91999889	102.42620000
182.95999889	120.39550000
182.99999889	136.56420000
183.03999889	149.14400000
183.07999889	147.34950000
183.11999889	138.36480000
183.15999889	122.19000000
183.19999889	118.59490000
183.23999889	115.00600000
183.27999889	113.20540000
183.31999889	107.81580000
183.35999889	102.42620000
183.39999889	98.83114000
183.43999889	95.23605000
183.47999888	95.23605000
183.51999888	93.44157000
183.55999888	91.64098000
183.59999888	88.04590000
183.63999888	80.86184000
183.67999888	68.28211000
183.71999888	48.51222000
183.75999888	21.55827000
183.79999888	-3.58897700
183.83999888	-34.13800000
183.87999888	-62.89254000
183.91999888	-91.64098000
183.95999888	-118.59490000
183.99999888	-136.56420000
184.03999888	-152.73900000
184.07999888	-140.15930000
184.11999888	-125.78510000
184.15999888	-97.03055000
184.19999888	-88.04590000
184.23999888	-80.86184000
184.27999888	-77.26676000
184.31999888	-70.07660000
184.35999888	-71.87719000
184.39999888	-71.87719000
184.43999888	-73.67168000
184.47999888	-73.67168000
184.51999888	-82.65633000
184.55999888	-86.25141000
184.59999888	-89.84650000
184.63999888	-89.84650000
184.67999888	-88.04590000
184.71999888	-79.06125000
184.75999888	-66.48762000
184.79999888	-52.10730000
184.83999888	-44.92325000
184.87999888	-43.12265000
184.91999888	-37.73308000
184.95999888	-30.54292000
184.99999888	-23.35887000
185.03999888	-14.37422000
185.07999888	-1.79448800
185.11999887	12.57363000
185.15999887	28.74844000
185.19999887	46.71774000
185.23999887	64.68703000
185.27999887	84.45692000
185.31999887	102.42620000
185.35999887	122.19000000
185.39999887	136.56420000
185.43999887	143.75440000
185.47999887	145.54890000
185.51999887	136.56420000
185.55999887	127.57960000
185.59999887	118.59490000
185.63999887	115.00600000
185.67999887	109.61030000
185.71999887	106.01520000
185.75999887	100.62560000
185.79999887	100.62560000
185.83999887	97.03055000
185.87999887	93.44157000
185.91999887	93.44157000
185.95999887	91.64098000
185.99999887	86.25141000
186.03999887	77.26676000
186.07999887	64.68703000
186.11999887	43.12265000
186.15999887	17.96930000
186.19999887	-8.98464900
186.23999887	-37.73308000
186.27999887	-64.68703000
186.31999887	-93.44157000
186.35999887	-120.39550000
186.39999887	-138.36480000
186.43999887	-150.94450000
186.47999887	-140.15930000
186.51999887	-122.19000000
186.55999887	-91.64098000
186.59999887	-80.86184000
186.63999887	-77.26676000
186.67999887	-71.87719000
186.71999887	-68.28211000
186.75999886	-71.87719000
186.79999886	-71.87719000
186.83999886	-73.67168000
186.87999886	-75.47227000
186.91999886	-82.65633000
186.95999886	-86.25141000
186.99999886	-89.84650000
187.03999886	-89.84650000
187.07999886	-88.04590000
187.11999886	-79.06125000
187.15999886	-66.48762000
187.19999886	-55.70238000
187.23999886	-46.71774000
187.27999886	-39.52757000
187.31999886	-35.93859000
187.35999886	-30.54292000
187.39999886	-26.95395000
187.43999886	-16.16870000
187.47999886	-3.58897700
187.51999886	12.57363000
187.55999886	26.95395000
187.59999886	44.92325000
187.63999886	66.48762000
187.67999886	86.25141000
187.71999886	107.81580000
187.75999886	127.57960000
187.79999886	140.15930000
187.83999886	149.14400000
187.87999886	143.75440000
187.91999886	134.76970000
187.95999886	122.19000000
187.99999886	116.80040000
188.03999886	115.00600000
188.07999886	111.41090000
188.11999886	95.23605000
188.15999886	91.64098000
188.19999886	104.22070000
188.23999886	102.42620000
188.27999886	93.44157000
188.31999886	91.64098000
188.35999886	91.64098000
188.39999886	89.84650000
188.43999885	80.86184000
188.47999885	64.68703000
188.51999885	44.92325000
188.55999885	19.76379000
188.59999885	-8.98464900
188.63999885	-37.73308000
188.67999885	-66.48762000
188.71999885	-97.03055000
188.75999885	-122.19000000
188.79999885	-136.56420000
188.83999885	-152.73900000
188.87999885	-131.17470000
188.91999885	-120.39550000
188.95999885	-82.65633000
188.99999885	-80.86184000
189.03999885	-73.67168000
189.07999885	-71.87719000
189.11999885	-68.28211000
189.15999885	-70.07660000
189.19999885	-73.67168000
189.23999885	-73.67168000
189.27999885	-75.47227000
189.31999885	-82.65633000
189.35999885	-86.25141000
189.39999885	-89.84650000
189.43999885	-89.84650000
189.47999885	-88.04590000
189.51999885	-77.26676000
189.55999885	-64.68703000
189.59999885	-53.90789000
189.63999885	-46.71774000
189.67999885	-37.73308000
189.71999885	-37.73308000
189.75999885	-34.13800000
189.79999885	-28.74844000
189.83999885	-12.57363000
189.87999885	-1.79448800
189.91999885	16.16870000
189.95999885	32.34352000
189.99999885	53.90789000
190.03999885	71.87719000
190.07999884	89.84650000
190.11999884	109.61030000
190.15999884	129.38020000
190.19999884	138.36480000
190.23999884	143.75440000
190.27999884	140.15930000
190.31999884	134.76970000
190.35999884	122.19000000
190.39999884	115.00600000
190.43999884	111.41090000
190.47999884	107.81580000
190.51999884	104.22070000
190.55999884	100.62560000
190.59999884	98.83114000
190.63999884	97.03055000
190.67999884	95.23605000
190.71999884	95.23605000
190.75999884	93.44157000
190.79999884	88.04590000
190.83999884	77.26676000
190.87999884	61.09195000
190.91999884	41.32816000
190.95999884	14.37422000
190.99999884	-14.37422000
191.03999884	-43.12265000
191.07999884	-70.07660000
191.11999884	-97.03055000
191.15999884	-120.39550000
191.19999884	-138.36480000
191.23999884	-143.75440000
191.27999884	-132.97520000
191.31999884	-111.41090000
191.35999884	-93.44157000
191.39999884	-80.86184000
191.43999884	-75.47227000
191.47999884	-71.87719000
191.51999884	-70.07660000
191.55999884	-71.87719000
191.59999884	-71.87719000
191.63999884	-75.47227000
191.67999884	-79.06125000
191.71999883	-80.86184000
191.75999883	-86.25141000
191.79999883	-88.04590000
191.83999883	-88.04590000
191.87999883	-86.25141000
191.91999883	-73.67168000
191.95999883	-64.68703000
191.99999883	-53.90789000
192.03999883	-44.92325000
192.07999883	-37.73308000
192.11999883	-35.93859000
192.15999883	-30.54292000
192.19999883	-21.55827000
192.23999883	-10.77914000
192.27999883	3.58897700
192.31999883	19.76379000
192.35999883	35.93859000
192.39999883	55.70238000
192.43999883	75.47227000
192.47999883	95.23605000
192.51999883	113.20540000
192.55999883	129.38020000
192.59999883	138.36480000
192.63999883	143.75440000
192.67999883	136.56420000
192.71999883	127.57960000
192.75999883	118.59490000
192.79999883	113.20540000
192.83999883	111.41090000
192.87999883	106.01520000
192.91999883	102.42620000
192.95999883	98.83114000
192.99999883	95.23605000
193.03999883	95.23605000
193.07999883	97.03055000
193.11999883	100.62560000
193.15999883	93.44157000
193.19999883	86.25141000
193.23999883	79.06125000
193.27999883	59.29746000
193.31999883	41.32816000
193.35999882	14.37422000
193.39999882	-14.37422000
193.43999882	-41.32816000
193.47999882	-71.87719000
193.51999882	-97.03055000
193.55999882	-122.19000000
193.59999882	-140.15930000
193.63999882	-143.75440000
193.67999882	-136.56420000
193.71999882	-111.41090000
193.75999882	-91.64098000
193.79999882	-80.86184000
193.83999882	-77.26676000
193.87999882	-73.67168000
193.91999882	-70.07660000
193.95999882	-71.87719000
193.99999882	-71.87719000
194.03999882	-71.87719000
194.07999882	-75.47227000
194.11999882	-79.06125000
194.15999882	-86.25141000
194.19999882	-88.04590000
194.23999882	-88.04590000
194.27999882	-82.65633000
194.31999882	-73.67168000
194.35999882	-62.89254000
194.39999882	-50.31281000
194.43999882	-44.92325000
194.47999882	-35.93859000
194.51999882	-32.34352000
194.55999882	-26.95395000
194.59999882	-19.76379000
194.63999882	-7.18405700
194.67999882	0.00000000
194.71999882	16.16870000
194.75999882	35.93859000
194.79999882	55.70238000
194.83999882	73.67168000
194.87999882	89.84650000
194.91999882	107.81580000
194.95999882	127.57960000
194.99999881	136.56420000
195.03999881	145.54890000
195.07999881	141.95990000
195.11999881	131.17470000
195.15999881	120.39550000
195.19999881	116.80040000
195.23999881	115.00600000
195.27999881	107.81580000
195.31999881	104.22070000
195.35999881	100.62560000
195.39999881	98.83114000
195.43999881	97.03055000
195.47999881	95.23605000
195.51999881	93.44157000
195.55999881	89.84650000
195.59999881	82.65633000
195.63999881	71.87719000
195.67999881	55.70238000
195.71999881	32.34352000
195.75999881	7.18405700
195.79999881	-21.55827000
195.83999881	-50.31281000
195.87999881	-77.26676000
195.91999881	-104.22070000
195.95999881	-129.38020000
195.99999881	-143.75440000
196.03999881	-154.53350000
196.07999881	-132.97520000
196.11999881	-122.19000000
196.15999881	-93.44157000
196.19999881	-89.84650000
196.23999881	-79.06125000
196.27999881	-77.26676000
196.31999881	-73.67168000
196.35999881	-75.47227000
196.39999881	-77.26676000
196.43999881	-77.26676000
196.47999881	-79.06125000
196.51999881	-84.45692000
196.55999881	-86.25141000
196.59999881	-89.84650000
196.63999880	-89.84650000
196.67999880	-86.25141000
196.71999880	-75.47227000
196.75999880	-62.89254000
196.79999880	-53.90789000
196.83999880	-44.92325000
196.87999880	-37.73308000
196.91999880	-30.54292000
196.95999880	-25.15336000
196.99999880	-17.96930000
197.03999880	-7.18405700
197.07999880	5.38956800
197.11999880	19.76379000
197.15999880	34.13800000
197.19999880	52.10730000
197.23999880	70.07660000
197.27999880	88.04590000
197.31999880	107.81580000
197.35999880	125.78510000
197.39999880	138.36480000
197.43999880	145.54890000
197.47999880	141.95990000
197.51999880	132.97520000
197.55999880	120.39550000
197.59999880	115.00600000
197.63999880	113.20540000
197.67999880	107.81580000
197.71999880	102.42620000
197.75999880	98.83114000
197.79999880	97.03055000
197.83999880	93.44157000
197.87999880	91.64098000
197.91999880	91.64098000
197.95999880	77.26676000
197.99999880	70.07660000
198.03999880	71.87719000
198.07999880	57.50298000
198.11999880	25.15336000
198.15999880	-3.58897700
198.19999880	-32.34352000
198.23999880	-53.90789000
198.27999879	-84.45692000
198.31999879	-111.41090000
198.35999879	-131.17470000
198.39999879	-141.95990000
198.43999879	-154.53350000
198.47999879	-129.38020000
198.51999879	-109.61030000
198.55999879	-86.25141000
198.59999879	-86.25141000
198.63999879	-73.67168000
198.67999879	-70.07660000
198.71999879	-70.07660000
198.75999879	-73.67168000
198.79999879	-75.47227000
198.83999879	-75.47227000
198.87999879	-79.06125000
198.91999879	-86.25141000
198.95999879	-88.04590000
198.99999879	-91.64098000
199.03999879	-91.64098000
199.07999879	-88.04590000
199.11999879	-75.47227000
199.15999879	-62.89254000
199.19999879	-53.90789000
199.23999879	-46.71774000
199.27999879	-41.32816000
199.31999879	-35.93859000
199.35999879	-30.54292000
199.39999879	-21.55827000
199.43999879	-10.77914000
199.47999879	1.79448800
199.51999879	17.96930000
199.55999879	35.93859000
199.59999879	52.10730000
199.63999879	71.87719000
199.67999879	91.64098000
199.71999879	107.81580000
199.75999879	129.38020000
199.79999879	141.95990000
199.83999879	149.14400000
199.87999879	143.75440000
199.91999878	131.17470000
199.95999878	120.39550000
199.99999878	115.00600000
200.03999878	111.41090000
200.07999878	106.01520000
200.11999878	100.62560000
