Time	Channel A
(us)	(mV)

0.00000000	66.48762000
0.04000000	57.50298000
0.08000000	50.31281000
0.12000000	39.52757000
0.16000000	28.74844000
0.20000000	14.37422000
0.24000000	3.58897700
0.28000000	-10.77914000
0.32000000	-23.35887000
0.36000000	-39.52757000
0.40000000	-53.90789000
0.44000000	-68.28211000
0.48000000	-80.86184000
0.52000000	-93.44157000
0.56000000	-102.42620000
0.60000000	-107.81580000
0.64000000	-107.81580000
0.68000000	-104.22070000
0.72000000	-98.83114000
0.76000000	-91.64098000
0.80000000	-80.86184000
0.83999999	-71.87719000
0.87999999	-64.68703000
0.91999999	-59.29746000
0.95999999	-55.70238000
0.99999999	-50.31281000
1.03999999	-53.90789000
1.07999999	-64.68703000
1.11999999	-57.50298000
1.15999999	-46.71774000
1.19999999	-50.31281000
1.23999999	-53.90789000
1.27999999	-52.10730000
1.31999999	-43.12265000
1.35999999	-34.13800000
1.39999999	-30.54292000
1.43999999	-25.15336000
1.47999999	-16.16870000
1.51999999	-10.77914000
1.55999999	-3.58897700
1.59999999	5.38956800
1.63999999	16.16870000
1.67999999	25.15336000
1.71999999	35.93859000
1.75999999	50.31281000
1.79999999	64.68703000
1.83999999	79.06125000
1.87999999	97.03055000
1.91999999	115.00600000
1.95999999	129.38020000
1.99999999	136.56420000
2.03999999	140.15930000
2.07999999	138.36480000
2.11999999	131.17470000
2.15999999	120.39550000
2.19999999	107.81580000
2.23999999	93.44157000
2.27999999	80.86184000
2.31999999	70.07660000
2.35999999	57.50298000
2.39999999	46.71774000
2.43999999	35.93859000
2.47999998	26.95395000
2.51999998	17.96930000
2.55999998	8.98464900
2.59999998	0.00000000
2.63999998	-10.77914000
2.67999998	-25.15336000
2.71999998	-39.52757000
2.75999998	-52.10730000
2.79999998	-66.48762000
2.83999998	-82.65633000
2.87999998	-89.84650000
2.91999998	-97.03055000
2.95999998	-100.62560000
2.99999998	-97.03055000
3.03999998	-91.64098000
3.07999998	-80.86184000
3.11999998	-75.47227000
3.15999998	-70.07660000
3.19999998	-66.48762000
3.23999998	-62.89254000
3.27999998	-62.89254000
3.31999998	-64.68703000
3.35999998	-64.68703000
3.39999998	-64.68703000
3.43999998	-66.48762000
3.47999998	-66.48762000
3.51999998	-64.68703000
3.55999998	-61.09195000
3.59999998	-57.50298000
3.63999998	-52.10730000
3.67999998	-43.12265000
3.71999998	-37.73308000
3.75999998	-28.74844000
3.79999998	-21.55827000
3.83999998	-10.77914000
3.87999998	-1.79448800
3.91999998	5.38956800
3.95999998	14.37422000
3.99999998	25.15336000
4.03999998	34.13800000
4.07999998	43.12265000
4.11999997	53.90789000
4.15999997	64.68703000
4.19999997	77.26676000
4.23999997	89.84650000
4.27999997	104.22070000
4.31999997	115.00600000
4.35999997	122.19000000
4.39999997	129.38020000
4.43999997	129.38020000
4.47999997	123.99060000
4.51999997	116.80040000
4.55999997	107.81580000
4.59999997	98.83114000
4.63999997	86.25141000
4.67999997	75.47227000
4.71999997	62.89254000
4.75999997	52.10730000
4.79999997	41.32816000
4.83999997	30.54292000
4.87999997	21.55827000
4.91999997	12.57363000
4.95999997	1.79448800
4.99999997	-8.98464900
5.03999997	-21.55827000
5.07999997	-35.93859000
5.11999997	-50.31281000
5.15999997	-64.68703000
5.19999997	-79.06125000
5.23999997	-91.64098000
5.27999997	-98.83114000
5.31999997	-100.62560000
5.35999997	-100.62560000
5.39999997	-97.03055000
5.43999997	-89.84650000
5.47999997	-84.45692000
5.51999997	-77.26676000
5.55999997	-71.87719000
5.59999997	-66.48762000
5.63999997	-62.89254000
5.67999997	-61.09195000
5.71999997	-61.09195000
5.75999996	-61.09195000
5.79999996	-61.09195000
5.83999996	-62.89254000
5.87999996	-61.09195000
5.91999996	-62.89254000
5.95999996	-57.50298000
5.99999996	-52.10730000
6.03999996	-43.12265000
6.07999996	-35.93859000
6.11999996	-26.95395000
6.15999996	-21.55827000
6.19999996	-14.37422000
6.23999996	-7.18405700
6.27999996	0.00000000
6.31999996	7.18405700
6.35999996	16.16870000
6.39999996	26.95395000
6.43999996	37.73308000
6.47999996	48.51222000
6.51999996	61.09195000
6.55999996	75.47227000
6.59999996	89.84650000
6.63999996	106.01520000
6.67999996	118.59490000
6.71999996	129.38020000
6.75999996	132.97520000
6.79999996	132.97520000
6.83999996	127.57960000
6.87999996	120.39550000
6.91999996	109.61030000
6.95999996	98.83114000
6.99999996	86.25141000
7.03999996	75.47227000
7.07999996	62.89254000
7.11999996	52.10730000
7.15999996	41.32816000
7.19999996	30.54292000
7.23999996	21.55827000
7.27999996	14.37422000
7.31999996	3.58897700
7.35999996	-7.18405700
7.39999996	-19.76379000
7.43999995	-32.34352000
7.47999995	-48.51222000
7.51999995	-62.89254000
7.55999995	-77.26676000
7.59999995	-88.04590000
7.63999995	-93.44157000
7.67999995	-98.83114000
7.71999995	-102.42620000
7.75999995	-97.03055000
7.79999995	-88.04590000
7.83999995	-80.86184000
7.87999995	-77.26676000
7.91999995	-71.87719000
7.95999995	-66.48762000
7.99999995	-62.89254000
8.03999995	-59.29746000
8.07999995	-59.29746000
8.11999995	-61.09195000
8.15999995	-61.09195000
8.19999995	-61.09195000
8.23999995	-59.29746000
8.27999995	-59.29746000
8.31999995	-57.50298000
8.35999995	-50.31281000
8.39999995	-44.92325000
8.43999995	-37.73308000
8.47999995	-30.54292000
8.51999995	-23.35887000
8.55999995	-14.37422000
8.59999995	-7.18405700
8.63999995	0.00000000
8.67999995	8.98464900
8.71999995	17.96930000
8.75999995	28.74844000
8.79999995	37.73308000
8.83999995	48.51222000
8.87999995	59.29746000
8.91999995	73.67168000
8.95999995	88.04590000
8.99999995	104.22070000
9.03999995	118.59490000
9.07999994	129.38020000
9.11999994	132.97520000
9.15999994	134.76970000
9.19999994	129.38020000
9.23999994	122.19000000
9.27999994	113.20540000
9.31999994	100.62560000
9.35999994	89.84650000
9.39999994	77.26676000
9.43999994	64.68703000
9.47999994	53.90789000
9.51999994	43.12265000
9.55999994	32.34352000
9.59999994	23.35887000
9.63999994	14.37422000
9.67999994	5.38956800
9.71999994	-5.38956800
9.75999994	-17.96930000
9.79999994	-30.54292000
9.83999994	-46.71774000
9.87999994	-62.89254000
9.91999994	-77.26676000
9.95999994	-88.04590000
9.99999994	-98.83114000
10.03999994	-102.42620000
10.07999994	-100.62560000
10.11999994	-95.23605000
10.15999994	-86.25141000
10.19999994	-79.06125000
10.23999994	-73.67168000
10.27999994	-66.48762000
10.31999994	-62.89254000
10.35999994	-61.09195000
10.39999994	-59.29746000
10.43999994	-59.29746000
10.47999994	-61.09195000
10.51999994	-62.89254000
10.55999994	-62.89254000
10.59999994	-62.89254000
10.63999994	-61.09195000
10.67999994	-57.50298000
10.71999993	-53.90789000
10.75999993	-44.92325000
10.79999993	-37.73308000
10.83999993	-26.95395000
10.87999993	-21.55827000
10.91999993	-25.15336000
10.95999993	-8.98464900
10.99999993	7.18405700
11.03999993	14.37422000
11.07999993	14.37422000
11.11999993	25.15336000
11.15999993	35.93859000
11.19999993	52.10730000
11.23999993	61.09195000
11.27999993	73.67168000
11.31999993	91.64098000
11.35999993	107.81580000
11.39999993	120.39550000
11.43999993	129.38020000
11.47999993	136.56420000
11.51999993	132.97520000
11.55999993	129.38020000
11.59999993	122.19000000
11.63999993	113.20540000
11.67999993	102.42620000
11.71999993	89.84650000
11.75999993	79.06125000
11.79999993	64.68703000
11.83999993	55.70238000
11.87999993	43.12265000
11.91999993	34.13800000
11.95999993	25.15336000
11.99999993	14.37422000
12.03999993	5.38956800
12.07999993	-5.38956800
12.11999993	-16.16870000
12.15999993	-30.54292000
12.19999993	-44.92325000
12.23999993	-61.09195000
12.27999993	-75.47227000
12.31999993	-88.04590000
12.35999992	-98.83114000
12.39999992	-102.42620000
12.43999992	-102.42620000
12.47999992	-97.03055000
12.51999992	-84.45692000
12.55999992	-79.06125000
12.59999992	-70.07660000
12.63999992	-64.68703000
12.67999992	-61.09195000
12.71999992	-59.29746000
12.75999992	-57.50298000
12.79999992	-57.50298000
12.83999992	-59.29746000
12.87999992	-62.89254000
12.91999992	-64.68703000
12.95999992	-62.89254000
12.99999992	-62.89254000
13.03999992	-59.29746000
13.07999992	-55.70238000
13.11999992	-46.71774000
13.15999992	-37.73308000
13.19999992	-30.54292000
13.23999992	-21.55827000
13.27999992	-14.37422000
13.31999992	-7.18405700
13.35999992	1.79448800
13.39999992	7.18405700
13.43999992	17.96930000
13.47999992	28.74844000
13.51999992	37.73308000
13.55999992	50.31281000
13.59999992	61.09195000
13.63999992	75.47227000
13.67999992	91.64098000
13.71999992	106.01520000
13.75999992	120.39550000
13.79999992	129.38020000
13.83999992	136.56420000
13.87999992	134.76970000
13.91999992	131.17470000
13.95999992	123.99060000
13.99999991	115.00600000
14.03999991	102.42620000
14.07999991	91.64098000
14.11999991	79.06125000
14.15999991	68.28211000
14.19999991	57.50298000
14.23999991	44.92325000
14.27999991	34.13800000
14.31999991	25.15336000
14.35999991	16.16870000
14.39999991	7.18405700
14.43999991	-3.58897700
14.47999991	-16.16870000
14.51999991	-30.54292000
14.55999991	-44.92325000
14.59999991	-59.29746000
14.63999991	-73.67168000
14.67999991	-86.25141000
14.71999991	-93.44157000
14.75999991	-98.83114000
14.79999991	-98.83114000
14.83999991	-93.44157000
14.87999991	-86.25141000
14.91999991	-79.06125000
14.95999991	-70.07660000
14.99999991	-64.68703000
15.03999991	-59.29746000
15.07999991	-57.50298000
15.11999991	-57.50298000
15.15999991	-57.50298000
15.19999991	-59.29746000
15.23999991	-61.09195000
15.27999991	-62.89254000
15.31999991	-64.68703000
15.35999991	-61.09195000
15.39999991	-59.29746000
15.43999991	-53.90789000
15.47999991	-46.71774000
15.51999991	-37.73308000
15.55999991	-30.54292000
15.59999991	-21.55827000
15.63999990	-14.37422000
15.67999990	-5.38956800
15.71999990	0.00000000
15.75999990	7.18405700
15.79999990	16.16870000
15.83999990	26.95395000
15.87999990	41.32816000
15.91999990	52.10730000
15.95999990	64.68703000
15.99999990	75.47227000
16.03999990	91.64098000
16.07999990	106.01520000
16.11999990	122.19000000
16.15999990	131.17470000
16.19999990	136.56420000
16.23999990	136.56420000
16.27999990	132.97520000
16.31999990	123.99060000
16.35999990	113.20540000
16.39999990	104.22070000
16.43999990	91.64098000
16.47999990	80.86184000
16.51999990	68.28211000
16.55999990	57.50298000
16.59999990	44.92325000
16.63999990	34.13800000
16.67999990	25.15336000
16.71999990	16.16870000
16.75999990	7.18405700
16.79999990	-3.58897700
16.83999990	-16.16870000
16.87999990	-30.54292000
16.91999990	-44.92325000
16.95999990	-59.29746000
16.99999990	-73.67168000
17.03999990	-86.25141000
17.07999990	-97.03055000
17.11999990	-100.62560000
17.15999990	-100.62560000
17.19999990	-91.64098000
17.23999990	-84.45692000
17.27999989	-73.67168000
17.31999989	-66.48762000
17.35999989	-62.89254000
17.39999989	-64.68703000
17.43999989	-64.68703000
17.47999989	-61.09195000
17.51999989	-57.50298000
17.55999989	-59.29746000
17.59999989	-64.68703000
17.63999989	-64.68703000
17.67999989	-62.89254000
17.71999989	-61.09195000
17.75999989	-59.29746000
17.79999989	-53.90789000
17.83999989	-44.92325000
17.87999989	-35.93859000
17.91999989	-26.95395000
17.95999989	-19.76379000
17.99999989	-12.57363000
18.03999989	-5.38956800
18.07999989	1.79448800
18.11999989	10.77914000
18.15999989	19.76379000
18.19999989	28.74844000
18.23999989	41.32816000
18.27999989	50.31281000
18.31999989	62.89254000
18.35999989	77.26676000
18.39999989	91.64098000
18.43999989	107.81580000
18.47999989	120.39550000
18.51999989	131.17470000
18.55999989	134.76970000
18.59999989	134.76970000
18.63999989	129.38020000
18.67999989	122.19000000
18.71999989	113.20540000
18.75999989	102.42620000
18.79999989	91.64098000
18.83999989	79.06125000
18.87999989	66.48762000
18.91999989	55.70238000
18.95999988	44.92325000
18.99999988	34.13800000
19.03999988	25.15336000
19.07999988	16.16870000
19.11999988	7.18405700
19.15999988	-3.58897700
19.19999988	-16.16870000
19.23999988	-28.74844000
19.27999988	-44.92325000
19.31999988	-59.29746000
19.35999988	-73.67168000
19.39999988	-86.25141000
19.43999988	-97.03055000
19.47999988	-100.62560000
19.51999988	-106.01520000
19.55999988	-95.23605000
19.59999988	-88.04590000
19.63999988	-77.26676000
19.67999988	-71.87719000
19.71999988	-64.68703000
19.75999988	-61.09195000
19.79999988	-57.50298000
19.83999988	-57.50298000
19.87999988	-57.50298000
19.91999988	-59.29746000
19.95999988	-61.09195000
19.99999988	-62.89254000
20.03999988	-62.89254000
20.07999988	-62.89254000
20.11999988	-59.29746000
20.15999988	-55.70238000
20.19999988	-48.51222000
20.23999988	-39.52757000
20.27999988	-32.34352000
20.31999988	-25.15336000
20.35999988	-16.16870000
20.39999988	-8.98464900
20.43999988	0.00000000
20.47999988	8.98464900
20.51999988	19.76379000
20.55999988	28.74844000
20.59999987	41.32816000
20.63999987	52.10730000
20.67999987	64.68703000
20.71999987	79.06125000
20.75999987	80.86184000
20.79999987	100.62560000
20.83999987	127.57960000
20.87999987	134.76970000
20.91999987	132.97520000
20.95999987	129.38020000
20.99999987	129.38020000
21.03999987	122.19000000
21.07999987	104.22070000
21.11999987	71.87719000
21.15999987	57.50298000
21.19999987	61.09195000
21.23999987	70.07660000
21.27999987	59.29746000
21.31999987	50.31281000
21.35999987	64.68703000
21.39999987	75.47227000
21.43999987	66.48762000
21.47999987	37.73308000
21.51999987	7.18405700
21.55999987	-14.37422000
21.59999987	-28.74844000
21.63999987	-50.31281000
21.67999987	-80.86184000
21.71999987	-100.62560000
21.75999987	-102.42620000
21.79999987	-98.83114000
21.83999987	-102.42620000
21.87999987	-111.41090000
21.91999987	-107.81580000
21.95999987	-95.23605000
21.99999987	-86.25141000
22.03999987	-80.86184000
22.07999987	-79.06125000
22.11999987	-75.47227000
22.15999987	-66.48762000
22.19999987	-64.68703000
22.23999986	-62.89254000
22.27999986	-61.09195000
22.31999986	-59.29746000
22.35999986	-57.50298000
22.39999986	-50.31281000
22.43999986	-46.71774000
22.47999986	-48.51222000
22.51999986	-50.31281000
22.55999986	-46.71774000
22.59999986	-39.52757000
22.63999986	-35.93859000
22.67999986	-34.13800000
22.71999986	-28.74844000
22.75999986	-16.16870000
22.79999986	-5.38956800
22.83999986	5.38956800
22.87999986	14.37422000
22.91999986	26.95395000
22.95999986	39.52757000
22.99999986	52.10730000
23.03999986	61.09195000
23.07999986	70.07660000
23.11999986	82.65633000
23.15999986	97.03055000
23.19999986	113.20540000
23.23999986	125.78510000
23.27999986	132.97520000
23.31999986	136.56420000
23.35999986	136.56420000
23.39999986	131.17470000
23.43999986	120.39550000
23.47999986	107.81580000
23.51999986	93.44157000
23.55999986	80.86184000
23.59999986	68.28211000
23.63999986	55.70238000
23.67999986	43.12265000
23.71999986	34.13800000
23.75999986	25.15336000
23.79999986	16.16870000
23.83999986	7.18405700
23.87999985	-1.79448800
23.91999985	-12.57363000
23.95999985	-25.15336000
23.99999985	-37.73308000
24.03999985	-53.90789000
24.07999985	-66.48762000
24.11999985	-80.86184000
24.15999985	-91.64098000
24.19999985	-98.83114000
24.23999985	-104.22070000
24.27999985	-98.83114000
24.31999985	-91.64098000
24.35999985	-80.86184000
24.39999985	-70.07660000
24.43999985	-64.68703000
24.47999985	-57.50298000
24.51999985	-57.50298000
24.55999985	-57.50298000
24.59999985	-61.09195000
24.63999985	-62.89254000
24.67999985	-66.48762000
24.71999985	-68.28211000
24.75999985	-66.48762000
24.79999985	-64.68703000
24.83999985	-61.09195000
24.87999985	-55.70238000
24.91999985	-48.51222000
24.95999985	-41.32816000
24.99999985	-32.34352000
25.03999985	-23.35887000
25.07999985	-16.16870000
25.11999985	-8.98464900
25.15999985	-1.79448800
25.19999985	3.58897700
25.23999985	12.57363000
25.27999985	21.55827000
25.31999985	32.34352000
25.35999985	43.12265000
25.39999985	55.70238000
25.43999985	70.07660000
25.47999985	82.65633000
25.51999984	100.62560000
25.55999984	113.20540000
25.59999984	122.19000000
25.63999984	131.17470000
25.67999984	132.97520000
25.71999984	134.76970000
25.75999984	129.38020000
25.79999984	118.59490000
25.83999984	107.81580000
25.87999984	97.03055000
25.91999984	84.45692000
25.95999984	73.67168000
25.99999984	62.89254000
26.03999984	50.31281000
26.07999984	41.32816000
26.11999984	30.54292000
26.15999984	21.55827000
26.19999984	10.77914000
26.23999984	0.00000000
26.27999984	-10.77914000
26.31999984	-25.15336000
26.35999984	-37.73308000
26.39999984	-55.70238000
26.43999984	-70.07660000
26.47999984	-84.45692000
26.51999984	-95.23605000
26.55999984	-102.42620000
26.59999984	-104.22070000
26.63999984	-102.42620000
26.67999984	-93.44157000
26.71999984	-82.65633000
26.75999984	-71.87719000
26.79999984	-59.29746000
26.83999984	-57.50298000
26.87999984	-52.10730000
26.91999984	-52.10730000
26.95999984	-52.10730000
26.99999984	-53.90789000
27.03999984	-53.90789000
27.07999984	-55.70238000
27.11999984	-61.09195000
27.15999983	-64.68703000
27.19999983	-61.09195000
27.23999983	-53.90789000
27.27999983	-48.51222000
27.31999983	-43.12265000
27.35999983	-35.93859000
27.39999983	-30.54292000
27.43999983	-17.96930000
27.47999983	-14.37422000
27.51999983	-5.38956800
27.55999983	5.38956800
27.59999983	14.37422000
27.63999983	26.95395000
27.67999983	37.73308000
27.71999983	48.51222000
27.75999983	61.09195000
27.79999983	75.47227000
27.83999983	91.64098000
27.87999983	106.01520000
27.91999983	122.19000000
27.95999983	132.97520000
27.99999983	140.15930000
28.03999983	140.15930000
28.07999983	134.76970000
28.11999983	125.78510000
28.15999983	115.00600000
28.19999983	104.22070000
28.23999983	91.64098000
28.27999983	79.06125000
28.31999983	64.68703000
28.35999983	53.90789000
28.39999983	44.92325000
28.43999983	34.13800000
28.47999983	25.15336000
28.51999983	16.16870000
28.55999983	7.18405700
28.59999983	-3.58897700
28.63999983	-14.37422000
28.67999983	-32.34352000
28.71999983	-43.12265000
28.75999983	-59.29746000
28.79999982	-75.47227000
28.83999982	-88.04590000
28.87999982	-97.03055000
28.91999982	-102.42620000
28.95999982	-98.83114000
28.99999982	-95.23605000
29.03999982	-84.45692000
29.07999982	-79.06125000
29.11999982	-71.87719000
29.15999982	-66.48762000
29.19999982	-62.89254000
29.23999982	-61.09195000
29.27999982	-59.29746000
29.31999982	-59.29746000
29.35999982	-59.29746000
29.39999982	-62.89254000
29.43999982	-62.89254000
29.47999982	-64.68703000
29.51999982	-62.89254000
29.55999982	-59.29746000
29.59999982	-55.70238000
29.63999982	-46.71774000
29.67999982	-39.52757000
29.71999982	-30.54292000
29.75999982	-21.55827000
29.79999982	-14.37422000
29.83999982	-5.38956800
29.87999982	3.58897700
29.91999982	12.57363000
29.95999982	21.55827000
29.99999982	32.34352000
30.03999982	43.12265000
30.07999982	52.10730000
30.11999982	62.89254000
30.15999982	77.26676000
30.19999982	89.84650000
30.23999982	106.01520000
30.27999982	118.59490000
30.31999982	127.57960000
30.35999982	131.17470000
30.39999982	131.17470000
30.43999982	127.57960000
30.47999981	120.39550000
30.51999981	115.00600000
30.55999981	98.83114000
30.59999981	77.26676000
30.63999981	79.06125000
30.67999981	75.47227000
30.71999981	57.50298000
30.75999981	43.12265000
30.79999981	30.54292000
30.83999981	25.15336000
30.87999981	19.76379000
30.91999981	5.38956800
30.95999981	-5.38956800
30.99999981	-14.37422000
31.03999981	-30.54292000
31.07999981	-46.71774000
31.11999981	-61.09195000
31.15999981	-77.26676000
31.19999981	-91.64098000
31.23999981	-100.62560000
31.27999981	-102.42620000
31.31999981	-100.62560000
31.35999981	-97.03055000
31.39999981	-88.04590000
31.43999981	-79.06125000
31.47999981	-73.67168000
31.51999981	-68.28211000
31.55999981	-64.68703000
31.59999981	-61.09195000
31.63999981	-61.09195000
31.67999981	-61.09195000
31.71999981	-62.89254000
31.75999981	-62.89254000
31.79999981	-64.68703000
31.83999981	-64.68703000
31.87999981	-62.89254000
31.91999981	-59.29746000
31.95999981	-53.90789000
31.99999981	-43.12265000
32.03999981	-41.32816000
32.07999981	-30.54292000
32.11999980	-21.55827000
32.15999980	-14.37422000
32.19999980	-8.98464900
32.23999980	1.79448800
32.27999980	10.77914000
32.31999980	19.76379000
32.35999980	26.95395000
32.39999980	37.73308000
32.43999980	50.31281000
32.47999980	61.09195000
32.51999980	73.67168000
32.55999980	88.04590000
32.59999980	102.42620000
32.63999980	116.80040000
32.67999980	125.78510000
32.71999980	132.97520000
32.75999980	131.17470000
32.79999980	129.38020000
32.83999980	120.39550000
32.87999980	113.20540000
32.91999980	100.62560000
32.95999980	89.84650000
32.99999980	79.06125000
33.03999980	68.28211000
33.07999980	55.70238000
33.11999980	46.71774000
33.15999980	35.93859000
33.19999980	26.95395000
33.23999980	16.16870000
33.27999980	7.18405700
33.31999980	-3.58897700
33.35999980	-14.37422000
33.39999980	-28.74844000
33.43999980	-44.92325000
33.47999980	-59.29746000
33.51999980	-75.47227000
33.55999980	-88.04590000
33.59999980	-98.83114000
33.63999980	-102.42620000
33.67999980	-106.01520000
33.71999980	-98.83114000
33.75999979	-91.64098000
33.79999979	-80.86184000
33.83999979	-77.26676000
33.87999979	-68.28211000
33.91999979	-62.89254000
33.95999979	-59.29746000
33.99999979	-57.50298000
34.03999979	-57.50298000
34.07999979	-59.29746000
34.11999979	-61.09195000
34.15999979	-64.68703000
34.19999979	-62.89254000
34.23999979	-62.89254000
34.27999979	-61.09195000
34.31999979	-57.50298000
34.35999979	-50.31281000
34.39999979	-43.12265000
34.43999979	-34.13800000
34.47999979	-25.15336000
34.51999979	-16.16870000
34.55999979	-8.98464900
34.59999979	0.00000000
34.63999979	7.18405700
34.67999979	17.96930000
34.71999979	28.74844000
34.75999979	37.73308000
34.79999979	48.51222000
34.83999979	59.29746000
34.87999979	73.67168000
34.91999979	86.25141000
34.95999979	100.62560000
34.99999979	115.00600000
35.03999979	125.78510000
35.07999979	131.17470000
35.11999979	132.97520000
35.15999979	129.38020000
35.19999979	122.19000000
35.23999979	113.20540000
35.27999979	102.42620000
35.31999979	91.64098000
35.35999979	79.06125000
35.39999978	66.48762000
35.43999978	50.31281000
35.47999978	44.92325000
35.51999978	32.34352000
35.55999978	28.74844000
35.59999978	17.96930000
35.63999978	7.18405700
35.67999978	-3.58897700
35.71999978	-16.16870000
35.75999978	-28.74844000
35.79999978	-43.12265000
35.83999978	-59.29746000
35.87999978	-73.67168000
35.91999978	-88.04590000
35.95999978	-97.03055000
35.99999978	-104.22070000
36.03999978	-104.22070000
36.07999978	-102.42620000
36.11999978	-93.44157000
36.15999978	-84.45692000
36.19999978	-73.67168000
36.23999978	-68.28211000
36.27999978	-62.89254000
36.31999978	-61.09195000
36.35999978	-61.09195000
36.39999978	-61.09195000
36.43999978	-61.09195000
36.47999978	-62.89254000
36.51999978	-64.68703000
36.55999978	-64.68703000
36.59999978	-64.68703000
36.63999978	-61.09195000
36.67999978	-57.50298000
36.71999978	-50.31281000
36.75999978	-37.73308000
36.79999978	-28.74844000
36.83999978	-25.15336000
36.87999978	-17.96930000
36.91999978	-8.98464900
36.95999978	0.00000000
36.99999978	7.18405700
37.03999977	16.16870000
37.07999977	25.15336000
37.11999977	35.93859000
37.15999977	46.71774000
37.19999977	57.50298000
37.23999977	70.07660000
37.27999977	84.45692000
37.31999977	98.83114000
37.35999977	115.00600000
37.39999977	125.78510000
37.43999977	131.17470000
37.47999977	131.17470000
37.51999977	129.38020000
37.55999977	122.19000000
37.59999977	113.20540000
37.63999977	102.42620000
37.67999977	91.64098000
37.71999977	79.06125000
37.75999977	68.28211000
37.79999977	55.70238000
37.83999977	46.71774000
37.87999977	35.93859000
37.91999977	26.95395000
37.95999977	17.96930000
37.99999977	7.18405700
38.03999977	-1.79448800
38.07999977	-14.37422000
38.11999977	-28.74844000
38.15999977	-43.12265000
38.19999977	-57.50298000
38.23999977	-73.67168000
38.27999977	-88.04590000
38.31999977	-97.03055000
38.35999977	-104.22070000
38.39999977	-106.01520000
38.43999977	-102.42620000
38.47999977	-97.03055000
38.51999977	-86.25141000
38.55999977	-79.06125000
38.59999977	-70.07660000
38.63999977	-66.48762000
38.67999976	-61.09195000
38.71999976	-59.29746000
38.75999976	-59.29746000
38.79999976	-61.09195000
38.83999976	-61.09195000
38.87999976	-64.68703000
38.91999976	-64.68703000
38.95999976	-62.89254000
38.99999976	-61.09195000
39.03999976	-57.50298000
39.07999976	-50.31281000
39.11999976	-43.12265000
39.15999976	-34.13800000
39.19999976	-25.15336000
39.23999976	-16.16870000
39.27999976	-8.98464900
39.31999976	-1.79448800
39.35999976	7.18405700
39.39999976	16.16870000
39.43999976	25.15336000
39.47999976	35.93859000
39.51999976	46.71774000
39.55999976	57.50298000
39.59999976	70.07660000
39.63999976	84.45692000
39.67999976	97.03055000
39.71999976	113.20540000
39.75999976	122.19000000
39.79999976	129.38020000
39.83999976	132.97520000
39.87999976	129.38020000
39.91999976	122.19000000
39.95999976	113.20540000
39.99999976	104.22070000
40.03999976	93.44157000
40.07999976	80.86184000
40.11999976	70.07660000
40.15999976	57.50298000
40.19999976	48.51222000
40.23999976	35.93859000
40.27999976	26.95395000
40.31999975	19.76379000
40.35999975	14.37422000
40.39999975	-7.18405700
40.43999975	-23.35887000
40.47999975	-23.35887000
40.51999975	-34.13800000
40.55999975	-57.50298000
40.59999975	-75.47227000
40.63999975	-89.84650000
40.67999975	-95.23605000
40.71999975	-102.42620000
40.75999975	-107.81580000
40.79999975	-104.22070000
40.83999975	-98.83114000
40.87999975	-88.04590000
40.91999975	-79.06125000
40.95999975	-70.07660000
40.99999975	-66.48762000
41.03999975	-62.89254000
41.07999975	-59.29746000
41.11999975	-57.50298000
41.15999975	-59.29746000
41.19999975	-62.89254000
41.23999975	-62.89254000
41.27999975	-62.89254000
41.31999975	-62.89254000
41.35999975	-62.89254000
41.39999975	-57.50298000
41.43999975	-53.90789000
41.47999975	-46.71774000
41.51999975	-37.73308000
41.55999975	-28.74844000
41.59999975	-19.76379000
41.63999975	-12.57363000
41.67999975	-3.58897700
41.71999975	7.18405700
41.75999975	16.16870000
41.79999975	21.55827000
41.83999975	34.13800000
41.87999975	44.92325000
41.91999975	53.90789000
41.95999974	66.48762000
41.99999974	82.65633000
42.03999974	98.83114000
42.07999974	109.61030000
42.11999974	122.19000000
42.15999974	131.17470000
42.19999974	132.97520000
42.23999974	131.17470000
42.27999974	123.99060000
42.31999974	116.80040000
42.35999974	107.81580000
42.39999974	95.23605000
42.43999974	82.65633000
42.47999974	71.87719000
42.51999974	59.29746000
42.55999974	48.51222000
42.59999974	37.73308000
42.63999974	28.74844000
42.67999974	17.96930000
42.71999974	8.98464900
42.75999974	0.00000000
42.79999974	-12.57363000
42.83999974	-25.15336000
42.87999974	-39.52757000
42.91999974	-53.90789000
42.95999974	-70.07660000
42.99999974	-84.45692000
43.03999974	-95.23605000
43.07999974	-100.62560000
43.11999974	-102.42620000
43.15999974	-100.62560000
43.19999974	-97.03055000
43.23999974	-89.84650000
43.27999974	-82.65633000
43.31999974	-75.47227000
43.35999974	-70.07660000
43.39999974	-64.68703000
43.43999974	-62.89254000
43.47999974	-61.09195000
43.51999974	-61.09195000
43.55999974	-62.89254000
43.59999974	-64.68703000
43.63999973	-64.68703000
43.67999973	-64.68703000
43.71999973	-61.09195000
43.75999973	-57.50298000
43.79999973	-52.10730000
43.83999973	-44.92325000
43.87999973	-37.73308000
43.91999973	-28.74844000
43.95999973	-21.55827000
43.99999973	-12.57363000
44.03999973	-5.38956800
44.07999973	3.58897700
44.11999973	12.57363000
44.15999973	21.55827000
44.19999973	30.54292000
44.23999973	41.32816000
44.27999973	52.10730000
44.31999973	62.89254000
44.35999973	77.26676000
44.39999973	89.84650000
44.43999973	104.22070000
44.47999973	118.59490000
44.51999973	127.57960000
44.55999973	132.97520000
44.59999973	131.17470000
44.63999973	125.78510000
44.67999973	118.59490000
44.71999973	107.81580000
44.75999973	98.83114000
44.79999973	86.25141000
44.83999973	75.47227000
44.87999973	62.89254000
44.91999973	50.31281000
44.95999973	41.32816000
44.99999973	32.34352000
45.03999973	21.55827000
45.07999973	14.37422000
45.11999973	3.58897700
45.15999973	-7.18405700
45.19999973	-19.76379000
45.23999973	-34.13800000
45.27999972	-53.90789000
45.31999972	-64.68703000
45.35999972	-80.86184000
45.39999972	-86.25141000
45.43999972	-93.44157000
45.47999972	-95.23605000
45.51999972	-91.64098000
45.55999972	-86.25141000
45.59999972	-77.26676000
45.63999972	-71.87719000
45.67999972	-64.68703000
45.71999972	-59.29746000
45.75999972	-55.70238000
45.79999972	-55.70238000
45.83999972	-57.50298000
45.87999972	-59.29746000
45.91999972	-64.68703000
45.95999972	-75.47227000
45.99999972	-84.45692000
46.03999972	-86.25141000
46.07999972	-82.65633000
46.11999972	-71.87719000
46.15999972	-53.90789000
46.19999972	-32.34352000
46.23999972	-12.57363000
46.27999972	7.18405700
46.31999972	21.55827000
46.35999972	25.15336000
46.39999972	25.15336000
46.43999972	17.96930000
46.47999972	14.37422000
46.51999972	14.37422000
46.55999972	21.55827000
46.59999972	30.54292000
46.63999972	39.52757000
46.67999972	50.31281000
46.71999972	68.28211000
46.75999972	86.25141000
46.79999972	104.22070000
46.83999972	116.80040000
46.87999972	125.78510000
46.91999971	129.38020000
46.95999971	129.38020000
46.99999971	125.78510000
47.03999971	116.80040000
47.07999971	107.81580000
47.11999971	100.62560000
47.15999971	93.44157000
47.19999971	84.45692000
47.23999971	77.26676000
47.27999971	68.28211000
47.31999971	59.29746000
47.35999971	48.51222000
47.39999971	35.93859000
47.43999971	21.55827000
47.47999971	7.18405700
47.51999971	-8.98464900
47.55999971	-25.15336000
47.59999971	-43.12265000
47.63999971	-57.50298000
47.67999971	-71.87719000
47.71999971	-84.45692000
47.75999971	-93.44157000
47.79999971	-100.62560000
47.83999971	-98.83114000
47.87999971	-95.23605000
47.91999971	-86.25141000
47.95999971	-77.26676000
47.99999971	-70.07660000
48.03999971	-64.68703000
48.07999971	-59.29746000
48.11999971	-53.90789000
48.15999971	-52.10730000
48.19999971	-50.31281000
48.23999971	-50.31281000
48.27999971	-50.31281000
48.31999971	-53.90789000
48.35999971	-57.50298000
48.39999971	-59.29746000
48.43999971	-59.29746000
48.47999971	-57.50298000
48.51999971	-53.90789000
48.55999970	-46.71774000
48.59999970	-39.52757000
48.63999970	-30.54292000
48.67999970	-21.55827000
48.71999970	-14.37422000
48.75999970	-5.38956800
48.79999970	3.58897700
48.83999970	16.16870000
48.87999970	26.95395000
48.91999970	37.73308000
48.95999970	50.31281000
48.99999970	62.89254000
49.03999970	75.47227000
49.07999970	89.84650000
49.11999970	106.01520000
49.15999970	116.80040000
49.19999970	129.38020000
49.23999970	134.76970000
49.27999970	136.56420000
49.31999970	134.76970000
49.35999970	127.57960000
49.39999970	118.59490000
49.43999970	106.01520000
49.47999970	93.44157000
49.51999970	80.86184000
49.55999970	70.07660000
49.59999970	57.50298000
49.63999970	48.51222000
49.67999970	37.73308000
49.71999970	30.54292000
49.75999970	21.55827000
49.79999970	14.37422000
49.83999970	3.58897700
49.87999970	-7.18405700
49.91999970	-21.55827000
49.95999970	-34.13800000
49.99999970	-50.31281000
50.03999970	-64.68703000
50.07999970	-80.86184000
50.11999970	-91.64098000
50.15999970	-97.03055000
50.19999969	-91.64098000
50.23999969	-100.62560000
50.27999969	-91.64098000
50.31999969	-71.87719000
50.35999969	-64.68703000
50.39999969	-66.48762000
50.43999969	-66.48762000
50.47999969	-62.89254000
50.51999969	-57.50298000
50.55999969	-59.29746000
50.59999969	-62.89254000
50.63999969	-61.09195000
50.67999969	-62.89254000
50.71999969	-62.89254000
50.75999969	-62.89254000
50.79999969	-57.50298000
50.83999969	-53.90789000
50.87999969	-46.71774000
50.91999969	-39.52757000
50.95999969	-28.74844000
50.99999969	-21.55827000
51.03999969	-16.16870000
51.07999969	-7.18405700
51.11999969	0.00000000
51.15999969	7.18405700
51.19999969	16.16870000
51.23999969	26.95395000
51.27999969	37.73308000
51.31999969	48.51222000
51.35999969	59.29746000
51.39999969	73.67168000
51.43999969	86.25141000
51.47999969	100.62560000
51.51999969	115.00600000
51.55999969	129.38020000
51.59999969	134.76970000
51.63999969	129.38020000
51.67999969	131.17470000
51.71999969	125.78510000
51.75999969	113.20540000
51.79999969	106.01520000
51.83999968	95.23605000
51.87999968	86.25141000
51.91999968	71.87719000
51.95999968	59.29746000
51.99999968	50.31281000
52.03999968	41.32816000
52.07999968	28.74844000
52.11999968	19.76379000
52.15999968	10.77914000
52.19999968	0.00000000
52.23999968	-10.77914000
52.27999968	-26.95395000
52.31999968	-39.52757000
52.35999968	-55.70238000
52.39999968	-70.07660000
52.43999968	-84.45692000
52.47999968	-93.44157000
52.51999968	-100.62560000
52.55999968	-98.83114000
52.59999968	-95.23605000
52.63999968	-86.25141000
52.67999968	-82.65633000
52.71999968	-75.47227000
52.75999968	-68.28211000
52.79999968	-64.68703000
52.83999968	-59.29746000
52.87999968	-57.50298000
52.91999968	-57.50298000
52.95999968	-57.50298000
52.99999968	-59.29746000
53.03999968	-61.09195000
53.07999968	-61.09195000
53.11999968	-61.09195000
53.15999968	-59.29746000
53.19999968	-53.90789000
53.23999968	-48.51222000
53.27999968	-41.32816000
53.31999968	-32.34352000
53.35999968	-25.15336000
53.39999968	-17.96930000
53.43999968	-10.77914000
53.47999967	-1.79448800
53.51999967	7.18405700
53.55999967	17.96930000
53.59999967	26.95395000
53.63999967	37.73308000
53.67999967	48.51222000
53.71999967	61.09195000
53.75999967	73.67168000
53.79999967	88.04590000
53.83999967	100.62560000
53.87999967	115.00600000
53.91999967	125.78510000
53.95999967	131.17470000
53.99999967	131.17470000
54.03999967	127.57960000
54.07999967	122.19000000
54.11999967	113.20540000
54.15999967	102.42620000
54.19999967	91.64098000
54.23999967	80.86184000
54.27999967	70.07660000
54.31999967	57.50298000
54.35999967	48.51222000
54.39999967	35.93859000
54.43999967	26.95395000
54.47999967	17.96930000
54.51999967	8.98464900
54.55999967	-1.79448800
54.59999967	-14.37422000
54.63999967	-28.74844000
54.67999967	-43.12265000
54.71999967	-57.50298000
54.75999967	-73.67168000
54.79999967	-86.25141000
54.83999967	-95.23605000
54.87999967	-100.62560000
54.91999967	-98.83114000
54.95999967	-93.44157000
54.99999967	-82.65633000
55.03999967	-75.47227000
55.07999967	-70.07660000
55.11999967	-70.07660000
55.15999966	-62.89254000
55.19999966	-61.09195000
55.23999966	-57.50298000
55.27999966	-57.50298000
55.31999966	-59.29746000
55.35999966	-62.89254000
55.39999966	-62.89254000
55.43999966	-64.68703000
55.47999966	-61.09195000
55.51999966	-61.09195000
55.55999966	-55.70238000
55.59999966	-46.71774000
55.63999966	-39.52757000
55.67999966	-32.34352000
55.71999966	-25.15336000
55.75999966	-16.16870000
55.79999966	-8.98464900
55.83999966	-1.79448800
55.87999966	8.98464900
55.91999966	17.96930000
55.95999966	28.74844000
55.99999966	37.73308000
56.03999966	50.31281000
56.07999966	61.09195000
56.11999966	73.67168000
56.15999966	88.04590000
56.19999966	100.62560000
56.23999966	115.00600000
56.27999966	125.78510000
56.31999966	132.97520000
56.35999966	134.76970000
56.39999966	132.97520000
56.43999966	122.19000000
56.47999966	111.41090000
56.51999966	100.62560000
56.55999966	91.64098000
56.59999966	82.65633000
56.63999966	70.07660000
56.67999966	57.50298000
56.71999966	46.71774000
56.75999966	35.93859000
56.79999965	28.74844000
56.83999965	17.96930000
56.87999965	7.18405700
56.91999965	-3.58897700
56.95999965	-14.37422000
56.99999965	-28.74844000
57.03999965	-43.12265000
57.07999965	-59.29746000
57.11999965	-73.67168000
57.15999965	-86.25141000
57.19999965	-95.23605000
57.23999965	-100.62560000
57.27999965	-100.62560000
57.31999965	-93.44157000
57.35999965	-80.86184000
57.39999965	-71.87719000
57.43999965	-64.68703000
57.47999965	-59.29746000
57.51999965	-55.70238000
57.55999965	-55.70238000
57.59999965	-55.70238000
57.63999965	-57.50298000
57.67999965	-57.50298000
57.71999965	-59.29746000
57.75999965	-61.09195000
57.79999965	-61.09195000
57.83999965	-61.09195000
57.87999965	-59.29746000
57.91999965	-53.90789000
57.95999965	-48.51222000
57.99999965	-39.52757000
58.03999965	-30.54292000
58.07999965	-21.55827000
58.11999965	-14.37422000
58.15999965	-7.18405700
58.19999965	0.00000000
58.23999965	8.98464900
58.27999965	19.76379000
58.31999965	30.54292000
58.35999965	43.12265000
58.39999965	53.90789000
58.43999964	68.28211000
58.47999964	82.65633000
58.51999964	95.23605000
58.55999964	113.20540000
58.59999964	125.78510000
58.63999964	134.76970000
58.67999964	136.56420000
58.71999964	136.56420000
58.75999964	129.38020000
58.79999964	122.19000000
58.83999964	111.41090000
58.87999964	100.62560000
58.91999964	89.84650000
58.95999964	77.26676000
58.99999964	64.68703000
59.03999964	55.70238000
59.07999964	43.12265000
59.11999964	34.13800000
59.15999964	25.15336000
59.19999964	14.37422000
59.23999964	5.38956800
59.27999964	-7.18405700
59.31999964	-19.76379000
59.35999964	-34.13800000
59.39999964	-50.31281000
59.43999964	-64.68703000
59.47999964	-79.06125000
59.51999964	-89.84650000
59.55999964	-97.03055000
59.59999964	-95.23605000
59.63999964	-93.44157000
59.67999964	-84.45692000
59.71999964	-79.06125000
59.75999964	-71.87719000
59.79999964	-66.48762000
59.83999964	-62.89254000
59.87999964	-59.29746000
59.91999964	-57.50298000
59.95999964	-57.50298000
59.99999964	-57.50298000
60.03999964	-55.70238000
60.07999963	-66.48762000
60.11999963	-71.87719000
60.15999963	-57.50298000
60.19999963	-52.10730000
60.23999963	-53.90789000
60.27999963	-52.10730000
60.31999963	-44.92325000
60.35999963	-32.34352000
60.39999963	-25.15336000
60.43999963	-19.76379000
60.47999963	-10.77914000
60.51999963	0.00000000
60.55999963	7.18405700
60.59999963	14.37422000
60.63999963	26.95395000
60.67999963	35.93859000
60.71999963	46.71774000
60.75999963	59.29746000
60.79999963	71.87719000
60.83999963	86.25141000
60.87999963	100.62560000
60.91999963	113.20540000
60.95999963	125.78510000
60.99999963	132.97520000
61.03999963	134.76970000
61.07999963	132.97520000
61.11999963	127.57960000
61.15999963	118.59490000
61.19999963	107.81580000
61.23999963	97.03055000
61.27999963	86.25141000
61.31999963	73.67168000
61.35999963	62.89254000
61.39999963	52.10730000
61.43999963	41.32816000
61.47999963	30.54292000
61.51999963	21.55827000
61.55999963	12.57363000
61.59999963	0.00000000
61.63999963	-8.98464900
61.67999963	-25.15336000
61.71999962	-37.73308000
61.75999962	-53.90789000
61.79999962	-68.28211000
61.83999962	-82.65633000
61.87999962	-89.84650000
61.91999962	-100.62560000
61.95999962	-100.62560000
61.99999962	-98.83114000
62.03999962	-91.64098000
62.07999962	-89.84650000
62.11999962	-82.65633000
62.15999962	-77.26676000
62.19999962	-71.87719000
62.23999962	-73.67168000
62.27999962	-79.06125000
62.31999962	-86.25141000
62.35999962	-80.86184000
62.39999962	-64.68703000
62.43999962	-52.10730000
62.47999962	-43.12265000
62.51999962	-35.93859000
62.55999962	-19.76379000
62.59999962	-7.18405700
62.63999962	-7.18405700
62.67999962	-17.96930000
62.71999962	-28.74844000
62.75999962	-28.74844000
62.79999962	-25.15336000
62.83999962	-23.35887000
62.87999962	-25.15336000
62.91999962	-17.96930000
62.95999962	0.00000000
62.99999962	14.37422000
63.03999962	26.95395000
63.07999962	34.13800000
63.11999962	46.71774000
63.15999962	64.68703000
63.19999962	80.86184000
63.23999962	95.23605000
63.27999962	109.61030000
63.31999962	122.19000000
63.35999961	132.97520000
63.39999961	138.36480000
63.43999961	138.36480000
63.47999961	132.97520000
63.51999961	127.57960000
63.55999961	118.59490000
63.59999961	109.61030000
63.63999961	97.03055000
63.67999961	79.06125000
63.71999961	62.89254000
63.75999961	48.51222000
63.79999961	34.13800000
63.83999961	21.55827000
63.87999961	7.18405700
63.91999961	-1.79448800
63.95999961	-8.98464900
63.99999961	-17.96930000
64.03999961	-28.74844000
64.07999961	-41.32816000
64.11999961	-55.70238000
64.15999961	-70.07660000
64.19999961	-82.65633000
64.23999961	-93.44157000
64.27999961	-100.62560000
64.31999961	-102.42620000
64.35999961	-97.03055000
64.39999961	-88.04590000
64.43999961	-75.47227000
64.47999961	-66.48762000
64.51999961	-57.50298000
64.55999961	-55.70238000
64.59999961	-52.10730000
64.63999961	-53.90789000
64.67999961	-57.50298000
64.71999961	-61.09195000
64.75999961	-64.68703000
64.79999961	-68.28211000
64.83999961	-70.07660000
64.87999961	-68.28211000
64.91999961	-66.48762000
64.95999961	-64.68703000
64.99999960	-55.70238000
65.03999960	-46.71774000
65.07999960	-34.13800000
65.11999960	-25.15336000
65.15999960	-17.96930000
65.19999960	-8.98464900
65.23999960	-1.79448800
65.27999960	7.18405700
65.31999960	16.16870000
65.35999960	25.15336000
65.39999960	35.93859000
65.43999960	46.71774000
65.47999960	59.29746000
65.51999960	71.87719000
65.55999960	86.25141000
65.59999960	100.62560000
65.63999960	115.00600000
65.67999960	127.57960000
65.71999960	132.97520000
65.75999960	131.17470000
65.79999960	129.38020000
65.83999960	120.39550000
65.87999960	113.20540000
65.91999960	102.42620000
65.95999960	93.44157000
65.99999960	80.86184000
66.03999960	71.87719000
66.07999960	61.09195000
66.11999960	50.31281000
66.15999960	39.52757000
66.19999960	30.54292000
66.23999960	21.55827000
66.27999960	12.57363000
66.31999960	0.00000000
66.35999960	-10.77914000
66.39999960	-25.15336000
66.43999960	-39.52757000
66.47999960	-55.70238000
66.51999960	-70.07660000
66.55999960	-84.45692000
66.59999960	-95.23605000
66.63999959	-98.83114000
66.67999959	-97.03055000
66.71999959	-89.84650000
66.75999959	-86.25141000
66.79999959	-80.86184000
66.83999959	-73.67168000
66.87999959	-68.28211000
66.91999959	-64.68703000
66.95999959	-62.89254000
66.99999959	-62.89254000
67.03999959	-61.09195000
67.07999959	-61.09195000
67.11999959	-62.89254000
67.15999959	-62.89254000
67.19999959	-64.68703000
67.23999959	-61.09195000
67.27999959	-57.50298000
67.31999959	-52.10730000
67.35999959	-46.71774000
67.39999959	-41.32816000
67.43999959	-32.34352000
67.47999959	-25.15336000
67.51999959	-17.96930000
67.55999959	-10.77914000
67.59999959	-3.58897700
67.63999959	5.38956800
67.67999959	14.37422000
67.71999959	25.15336000
67.75999959	35.93859000
67.79999959	46.71774000
67.83999959	57.50298000
67.87999959	70.07660000
67.91999959	84.45692000
67.95999959	98.83114000
67.99999959	111.41090000
68.03999959	122.19000000
68.07999959	129.38020000
68.11999959	132.97520000
68.15999959	129.38020000
68.19999959	123.99060000
68.23999959	116.80040000
68.27999959	106.01520000
68.31999958	95.23605000
68.35999958	84.45692000
68.39999958	73.67168000
68.43999958	61.09195000
68.47999958	50.31281000
68.51999958	39.52757000
68.55999958	30.54292000
68.59999958	21.55827000
68.63999958	10.77914000
68.67999958	0.00000000
68.71999958	-10.77914000
68.75999958	-23.35887000
68.79999958	-37.73308000
68.83999958	-53.90789000
68.87999958	-68.28211000
68.91999958	-82.65633000
68.95999958	-93.44157000
68.99999958	-100.62560000
69.03999958	-100.62560000
69.07999958	-93.44157000
69.11999958	-86.25141000
69.15999958	-75.47227000
69.19999958	-70.07660000
69.23999958	-64.68703000
69.27999958	-61.09195000
69.31999958	-61.09195000
69.35999958	-59.29746000
69.39999958	-59.29746000
69.43999958	-61.09195000
69.47999958	-61.09195000
69.51999958	-62.89254000
69.55999958	-62.89254000
69.59999958	-61.09195000
69.63999958	-59.29746000
69.67999958	-55.70238000
69.71999958	-48.51222000
69.75999958	-41.32816000
69.79999958	-34.13800000
69.83999958	-25.15336000
69.87999958	-14.37422000
69.91999958	-14.37422000
69.95999957	-16.16870000
69.99999957	3.58897700
70.03999957	21.55827000
70.07999957	26.95395000
70.11999957	32.34352000
70.15999957	43.12265000
70.19999957	61.09195000
70.23999957	75.47227000
70.27999957	88.04590000
70.31999957	104.22070000
70.35999957	120.39550000
70.39999957	129.38020000
70.43999957	136.56420000
70.47999957	138.36480000
70.51999957	132.97520000
70.55999957	125.78510000
70.59999957	115.00600000
70.63999957	107.81580000
70.67999957	97.03055000
70.71999957	82.65633000
70.75999957	71.87719000
70.79999957	59.29746000
70.83999957	48.51222000
70.87999957	37.73308000
70.91999957	28.74844000
70.95999957	19.76379000
70.99999957	8.98464900
71.03999957	-1.79448800
71.07999957	-14.37422000
71.11999957	-28.74844000
71.15999957	-43.12265000
71.19999957	-57.50298000
71.23999957	-71.87719000
71.27999957	-86.25141000
71.31999957	-97.03055000
71.35999957	-102.42620000
71.39999957	-104.22070000
71.43999957	-97.03055000
71.47999957	-91.64098000
71.51999957	-77.26676000
71.55999957	-68.28211000
71.59999956	-62.89254000
71.63999956	-64.68703000
71.67999956	-61.09195000
71.71999956	-64.68703000
71.75999956	-62.89254000
71.79999956	-61.09195000
71.83999956	-62.89254000
71.87999956	-64.68703000
71.91999956	-64.68703000
71.95999956	-64.68703000
71.99999956	-61.09195000
72.03999956	-55.70238000
72.07999956	-50.31281000
72.11999956	-41.32816000
72.15999956	-28.74844000
72.19999956	-21.55827000
72.23999956	-14.37422000
72.27999956	-7.18405700
72.31999956	0.00000000
72.35999956	8.98464900
72.39999956	17.96930000
72.43999956	28.74844000
72.47999956	37.73308000
72.51999956	48.51222000
72.55999956	59.29746000
72.59999956	71.87719000
72.63999956	86.25141000
72.67999956	100.62560000
72.71999956	115.00600000
72.75999956	127.57960000
72.79999956	132.97520000
72.83999956	132.97520000
72.87999956	129.38020000
72.91999956	122.19000000
72.95999956	113.20540000
72.99999956	104.22070000
73.03999956	93.44157000
73.07999956	80.86184000
73.11999956	70.07660000
73.15999956	57.50298000
73.19999956	48.51222000
73.23999955	35.93859000
73.27999955	26.95395000
73.31999955	19.76379000
73.35999955	8.98464900
73.39999955	0.00000000
73.43999955	-14.37422000
73.47999955	-25.15336000
73.51999955	-41.32816000
73.55999955	-57.50298000
73.59999955	-71.87719000
73.63999955	-86.25141000
73.67999955	-93.44157000
73.71999955	-102.42620000
73.75999955	-97.03055000
73.79999955	-95.23605000
73.83999955	-84.45692000
73.87999955	-79.06125000
73.91999955	-71.87719000
73.95999955	-66.48762000
73.99999955	-64.68703000
74.03999955	-62.89254000
74.07999955	-61.09195000
74.11999955	-61.09195000
74.15999955	-61.09195000
74.19999955	-62.89254000
74.23999955	-62.89254000
74.27999955	-61.09195000
74.31999955	-61.09195000
74.35999955	-61.09195000
74.39999955	-52.10730000
74.43999955	-48.51222000
74.47999955	-41.32816000
74.51999955	-34.13800000
74.55999955	-25.15336000
74.59999955	-16.16870000
74.63999955	-10.77914000
74.67999955	-3.58897700
74.71999955	5.38956800
74.75999955	14.37422000
74.79999955	21.55827000
74.83999955	34.13800000
74.87999954	44.92325000
74.91999954	62.89254000
74.95999954	75.47227000
74.99999954	89.84650000
75.03999954	100.62560000
75.07999954	116.80040000
75.11999954	127.57960000
75.15999954	132.97520000
75.19999954	134.76970000
75.23999954	131.17470000
75.27999954	123.99060000
75.31999954	115.00600000
75.35999954	104.22070000
75.39999954	93.44157000
75.43999954	80.86184000
75.47999954	71.87719000
75.51999954	57.50298000
75.55999954	48.51222000
75.59999954	37.73308000
75.63999954	28.74844000
75.67999954	19.76379000
75.71999954	8.98464900
75.75999954	0.00000000
75.79999954	-12.57363000
75.83999954	-26.95395000
75.87999954	-41.32816000
75.91999954	-57.50298000
75.95999954	-71.87719000
75.99999954	-84.45692000
76.03999954	-95.23605000
76.07999954	-100.62560000
76.11999954	-100.62560000
76.15999954	-93.44157000
76.19999954	-86.25141000
76.23999954	-77.26676000
76.27999954	-71.87719000
76.31999954	-62.89254000
76.35999954	-57.50298000
76.39999954	-59.29746000
76.43999954	-59.29746000
76.47999954	-57.50298000
76.51999953	-57.50298000
76.55999953	-57.50298000
76.59999953	-61.09195000
76.63999953	-62.89254000
76.67999953	-61.09195000
76.71999953	-59.29746000
76.75999953	-55.70238000
76.79999953	-50.31281000
76.83999953	-43.12265000
76.87999953	-32.34352000
76.91999953	-25.15336000
76.95999953	-16.16870000
76.99999953	-8.98464900
77.03999953	-1.79448800
77.07999953	7.18405700
77.11999953	16.16870000
77.15999953	26.95395000
77.19999953	37.73308000
77.23999953	48.51222000
77.27999953	61.09195000
77.31999953	75.47227000
77.35999953	89.84650000
77.39999953	102.42620000
77.43999953	118.59490000
77.47999953	129.38020000
77.51999953	136.56420000
77.55999953	136.56420000
77.59999953	132.97520000
77.63999953	125.78510000
77.67999953	116.80040000
77.71999953	106.01520000
77.75999953	93.44157000
77.79999953	82.65633000
77.83999953	70.07660000
77.87999953	57.50298000
77.91999953	46.71774000
77.95999953	35.93859000
77.99999953	26.95395000
78.03999953	17.96930000
78.07999953	7.18405700
78.11999953	-3.58897700
78.15999952	-14.37422000
78.19999952	-28.74844000
78.23999952	-43.12265000
78.27999952	-59.29746000
78.31999952	-73.67168000
78.35999952	-86.25141000
78.39999952	-97.03055000
78.43999952	-100.62560000
78.47999952	-100.62560000
78.51999952	-91.64098000
78.55999952	-82.65633000
78.59999952	-77.26676000
78.63999952	-71.87719000
78.67999952	-68.28211000
78.71999952	-62.89254000
78.75999952	-62.89254000
78.79999952	-59.29746000
78.83999952	-59.29746000
78.87999952	-59.29746000
78.91999952	-62.89254000
78.95999952	-62.89254000
78.99999952	-62.89254000
79.03999952	-62.89254000
79.07999952	-59.29746000
79.11999952	-53.90789000
79.15999952	-46.71774000
79.19999952	-41.32816000
79.23999952	-32.34352000
79.27999952	-25.15336000
79.31999952	-14.37422000
79.35999952	-8.98464900
79.39999952	0.00000000
79.43999952	8.98464900
79.47999952	19.76379000
79.51999952	30.54292000
79.55999952	41.32816000
79.59999952	52.10730000
79.63999952	64.68703000
79.67999952	79.06125000
79.71999952	95.23605000
79.75999952	106.01520000
79.79999952	107.81580000
79.83999951	125.78510000
79.87999951	141.95990000
79.91999951	138.36480000
79.95999951	129.38020000
79.99999951	120.39550000
80.03999951	115.00600000
80.07999951	107.81580000
80.11999951	93.44157000
80.15999951	80.86184000
80.19999951	71.87719000
80.23999951	57.50298000
80.27999951	46.71774000
80.31999951	35.93859000
80.35999951	28.74844000
80.39999951	16.16870000
80.43999951	5.38956800
80.47999951	-1.79448800
80.51999951	-14.37422000
80.55999951	-28.74844000
80.59999951	-44.92325000
80.63999951	-59.29746000
80.67999951	-73.67168000
80.71999951	-86.25141000
80.75999951	-97.03055000
80.79999951	-100.62560000
80.83999951	-102.42620000
80.87999951	-95.23605000
80.91999951	-88.04590000
80.95999951	-79.06125000
80.99999951	-73.67168000
81.03999951	-66.48762000
81.07999951	-62.89254000
81.11999951	-59.29746000
81.15999951	-59.29746000
81.19999951	-59.29746000
81.23999951	-53.90789000
81.27999951	-59.29746000
81.31999951	-57.50298000
81.35999951	-59.29746000
81.39999951	-61.09195000
81.43999951	-59.29746000
81.47999950	-53.90789000
81.51999950	-46.71774000
81.55999950	-41.32816000
81.59999950	-35.93859000
81.63999950	-26.95395000
81.67999950	-16.16870000
81.71999950	-10.77914000
81.75999950	-3.58897700
81.79999950	3.58897700
81.83999950	16.16870000
81.87999950	26.95395000
81.91999950	37.73308000
81.95999950	50.31281000
81.99999950	62.89254000
82.03999950	79.06125000
82.07999950	93.44157000
82.11999950	107.81580000
82.15999950	122.19000000
82.19999950	132.97520000
82.23999950	138.36480000
82.27999950	138.36480000
82.31999950	132.97520000
82.35999950	125.78510000
82.39999950	115.00600000
82.43999950	104.22070000
82.47999950	93.44157000
82.51999950	80.86184000
82.55999950	68.28211000
82.59999950	57.50298000
82.63999950	46.71774000
82.67999950	35.93859000
82.71999950	26.95395000
82.75999950	17.96930000
82.79999950	7.18405700
82.83999950	-1.79448800
82.87999950	-14.37422000
82.91999950	-28.74844000
82.95999950	-43.12265000
82.99999950	-59.29746000
83.03999950	-73.67168000
83.07999950	-88.04590000
83.11999949	-98.83114000
83.15999949	-102.42620000
83.19999949	-107.81580000
83.23999949	-97.03055000
83.27999949	-88.04590000
83.31999949	-77.26676000
83.35999949	-68.28211000
83.39999949	-59.29746000
83.43999949	-53.90789000
83.47999949	-52.10730000
83.51999949	-53.90789000
83.55999949	-53.90789000
83.59999949	-53.90789000
83.63999949	-57.50298000
83.67999949	-59.29746000
83.71999949	-59.29746000
83.75999949	-59.29746000
83.79999949	-59.29746000
83.83999949	-55.70238000
83.87999949	-50.31281000
83.91999949	-41.32816000
83.95999949	-32.34352000
83.99999949	-25.15336000
84.03999949	-16.16870000
84.07999949	-10.77914000
84.11999949	-3.58897700
84.15999949	5.38956800
84.19999949	14.37422000
84.23999949	26.95395000
84.27999949	37.73308000
84.31999949	50.31281000
84.35999949	64.68703000
84.39999949	79.06125000
84.43999949	95.23605000
84.47999949	113.20540000
84.51999949	129.38020000
84.55999949	138.36480000
84.59999949	141.95990000
84.63999949	138.36480000
84.67999949	129.38020000
84.71999949	122.19000000
84.75999948	113.20540000
84.79999948	104.22070000
84.83999948	91.64098000
84.87999948	77.26676000
84.91999948	64.68703000
84.95999948	53.90789000
84.99999948	43.12265000
85.03999948	34.13800000
85.07999948	23.35887000
85.11999948	14.37422000
85.15999948	5.38956800
85.19999948	-5.38956800
85.23999948	-19.76379000
85.27999948	-32.34352000
85.31999948	-44.92325000
85.35999948	-50.31281000
85.39999948	-43.12265000
85.43999948	-53.90789000
85.47999948	-77.26676000
85.51999948	-97.03055000
85.55999948	-100.62560000
85.59999948	-107.81580000
85.63999948	-125.78510000
85.67999948	-136.56420000
85.71999948	-125.78510000
85.75999948	-100.62560000
85.79999948	-73.67168000
85.83999948	-61.09195000
85.87999948	-57.50298000
85.91999948	-50.31281000
85.95999948	-37.73308000
85.99999948	-35.93859000
86.03999948	-46.71774000
86.07999948	-55.70238000
86.11999948	-50.31281000
86.15999948	-39.52757000
86.19999948	-39.52757000
86.23999948	-39.52757000
86.27999948	-32.34352000
86.31999948	-21.55827000
86.35999948	-10.77914000
86.39999947	-5.38956800
86.43999947	-1.79448800
86.47999947	3.58897700
86.51999947	8.98464900
86.55999947	16.16870000
86.59999947	21.55827000
86.63999947	28.74844000
86.67999947	35.93859000
86.71999947	48.51222000
86.75999947	66.48762000
86.79999947	84.45692000
86.83999947	104.22070000
86.87999947	122.19000000
86.91999947	136.56420000
86.95999947	147.34950000
86.99999947	147.34950000
87.03999947	141.95990000
87.07999947	129.38020000
87.11999947	115.00600000
87.15999947	100.62560000
87.19999947	88.04590000
87.23999947	75.47227000
87.27999947	62.89254000
87.31999947	52.10730000
87.35999947	43.12265000
87.39999947	34.13800000
87.43999947	21.55827000
87.47999947	12.57363000
87.51999947	0.00000000
87.55999947	-12.57363000
87.59999947	-26.95395000
87.63999947	-43.12265000
87.67999947	-57.50298000
87.71999947	-71.87719000
87.75999947	-84.45692000
87.79999947	-93.44157000
87.83999947	-97.03055000
87.87999947	-98.83114000
87.91999947	-97.03055000
87.95999947	-89.84650000
87.99999947	-80.86184000
88.03999946	-70.07660000
88.07999946	-64.68703000
88.11999946	-57.50298000
88.15999946	-52.10730000
88.19999946	-52.10730000
88.23999946	-55.70238000
88.27999946	-57.50298000
88.31999946	-59.29746000
88.35999946	-62.89254000
88.39999946	-64.68703000
88.43999946	-64.68703000
88.47999946	-62.89254000
88.51999946	-59.29746000
88.55999946	-55.70238000
88.59999946	-48.51222000
88.63999946	-39.52757000
88.67999946	-32.34352000
88.71999946	-25.15336000
88.75999946	-16.16870000
88.79999946	-7.18405700
88.83999946	0.00000000
88.87999946	12.57363000
88.91999946	23.35887000
88.95999946	35.93859000
88.99999946	46.71774000
89.03999946	57.50298000
89.07999946	71.87719000
89.11999946	84.45692000
89.15999946	100.62560000
89.19999946	113.20540000
89.23999946	125.78510000
89.27999946	134.76970000
89.31999946	138.36480000
89.35999946	134.76970000
89.39999946	129.38020000
89.43999946	118.59490000
89.47999946	107.81580000
89.51999946	97.03055000
89.55999946	86.25141000
89.59999946	75.47227000
89.63999946	57.50298000
89.67999945	39.52757000
89.71999945	41.32816000
89.75999945	41.32816000
89.79999945	25.15336000
89.83999945	12.57363000
89.87999945	0.00000000
89.91999945	-7.18405700
89.95999945	-17.96930000
89.99999945	-35.93859000
90.03999945	-52.10730000
90.07999945	-66.48762000
90.11999945	-80.86184000
90.15999945	-95.23605000
90.19999945	-100.62560000
90.23999945	-104.22070000
90.27999945	-100.62560000
90.31999945	-91.64098000
90.35999945	-77.26676000
90.39999945	-70.07660000
90.43999945	-64.68703000
90.47999945	-59.29746000
90.51999945	-57.50298000
90.55999945	-55.70238000
90.59999945	-57.50298000
90.63999945	-57.50298000
90.67999945	-57.50298000
90.71999945	-61.09195000
90.75999945	-61.09195000
90.79999945	-61.09195000
90.83999945	-59.29746000
90.87999945	-55.70238000
90.91999945	-50.31281000
90.95999945	-41.32816000
90.99999945	-34.13800000
91.03999945	-23.35887000
91.07999945	-17.96930000
91.11999945	-12.57363000
91.15999945	-5.38956800
91.19999945	3.58897700
91.23999945	10.77914000
91.27999945	23.35887000
91.31999945	34.13800000
91.35999944	46.71774000
91.39999944	57.50298000
91.43999944	71.87719000
91.47999944	88.04590000
91.51999944	104.22070000
91.55999944	118.59490000
91.59999944	131.17470000
91.63999944	138.36480000
91.67999944	138.36480000
91.71999944	136.56420000
91.75999944	129.38020000
91.79999944	118.59490000
91.83999944	107.81580000
91.87999944	95.23605000
91.91999944	84.45692000
91.95999944	71.87719000
91.99999944	59.29746000
92.03999944	48.51222000
92.07999944	35.93859000
92.11999944	28.74844000
92.15999944	17.96930000
92.19999944	8.98464900
92.23999944	0.00000000
92.27999944	-14.37422000
92.31999944	-26.95395000
92.35999944	-41.32816000
92.39999944	-55.70238000
92.43999944	-71.87719000
92.47999944	-84.45692000
92.51999944	-93.44157000
92.55999944	-95.23605000
92.59999944	-93.44157000
92.63999944	-89.84650000
92.67999944	-82.65633000
92.71999944	-77.26676000
92.75999944	-70.07660000
92.79999944	-64.68703000
92.83999944	-61.09195000
92.87999944	-61.09195000
92.91999944	-59.29746000
92.95999944	-59.29746000
92.99999943	-61.09195000
93.03999943	-62.89254000
93.07999943	-64.68703000
93.11999943	-64.68703000
93.15999943	-62.89254000
93.19999943	-57.50298000
93.23999943	-52.10730000
93.27999943	-44.92325000
93.31999943	-39.52757000
93.35999943	-30.54292000
93.39999943	-23.35887000
93.43999943	-14.37422000
93.47999943	-7.18405700
93.51999943	0.00000000
93.55999943	8.98464900
93.59999943	17.96930000
93.63999943	28.74844000
93.67999943	39.52757000
93.71999943	50.31281000
93.75999943	62.89254000
93.79999943	77.26676000
93.83999943	89.84650000
93.87999943	102.42620000
93.91999943	116.80040000
93.95999943	125.78510000
93.99999943	131.17470000
94.03999943	132.97520000
94.07999943	129.38020000
94.11999943	122.19000000
94.15999943	115.00600000
94.19999943	104.22070000
94.23999943	93.44157000
94.27999943	82.65633000
94.31999943	71.87719000
94.35999943	61.09195000
94.39999943	50.31281000
94.43999943	39.52757000
94.47999943	28.74844000
94.51999943	14.37422000
94.55999943	7.18405700
94.59999943	-3.58897700
94.63999942	-10.77914000
94.67999942	-25.15336000
94.71999942	-43.12265000
94.75999942	-59.29746000
94.79999942	-73.67168000
94.83999942	-84.45692000
94.87999942	-93.44157000
94.91999942	-98.83114000
94.95999942	-97.03055000
94.99999942	-91.64098000
95.03999942	-86.25141000
95.07999942	-79.06125000
95.11999942	-73.67168000
95.15999942	-68.28211000
95.19999942	-64.68703000
95.23999942	-61.09195000
95.27999942	-61.09195000
95.31999942	-61.09195000
95.35999942	-61.09195000
95.39999942	-62.89254000
95.43999942	-62.89254000
95.47999942	-62.89254000
95.51999942	-61.09195000
95.55999942	-59.29746000
95.59999942	-55.70238000
95.63999942	-50.31281000
95.67999942	-41.32816000
95.71999942	-32.34352000
95.75999942	-23.35887000
95.79999942	-14.37422000
95.83999942	-7.18405700
95.87999942	5.38956800
95.91999942	10.77914000
95.95999942	16.16870000
95.99999942	26.95395000
96.03999942	41.32816000
96.07999942	52.10730000
96.11999942	62.89254000
96.15999942	73.67168000
96.19999942	88.04590000
96.23999942	100.62560000
96.27999941	115.00600000
96.31999941	125.78510000
96.35999941	129.38020000
96.39999941	131.17470000
96.43999941	129.38020000
96.47999941	122.19000000
96.51999941	115.00600000
96.55999941	102.42620000
96.59999941	93.44157000
96.63999941	82.65633000
96.67999941	71.87719000
96.71999941	59.29746000
96.75999941	48.51222000
96.79999941	39.52757000
96.83999941	28.74844000
96.87999941	19.76379000
96.91999941	8.98464900
96.95999941	-1.79448800
96.99999941	-12.57363000
97.03999941	-26.95395000
97.07999941	-41.32816000
97.11999941	-57.50298000
97.15999941	-71.87719000
97.19999941	-86.25141000
97.23999941	-95.23605000
97.27999941	-100.62560000
97.31999941	-98.83114000
97.35999941	-89.84650000
97.39999941	-82.65633000
97.43999941	-71.87719000
97.47999941	-66.48762000
97.51999941	-57.50298000
97.55999941	-55.70238000
97.59999941	-53.90789000
97.63999941	-53.90789000
97.67999941	-55.70238000
97.71999941	-57.50298000
97.75999941	-59.29746000
97.79999941	-61.09195000
97.83999941	-61.09195000
97.87999941	-61.09195000
97.91999940	-57.50298000
97.95999940	-53.90789000
97.99999940	-46.71774000
98.03999940	-39.52757000
98.07999940	-32.34352000
98.11999940	-23.35887000
98.15999940	-16.16870000
98.19999940	-8.98464900
98.23999940	-1.79448800
98.27999940	7.18405700
98.31999940	16.16870000
98.35999940	28.74844000
98.39999940	39.52757000
98.43999940	52.10730000
98.47999940	64.68703000
98.51999940	80.86184000
98.55999940	97.03055000
98.59999940	113.20540000
98.63999940	127.57960000
98.67999940	136.56420000
98.71999940	141.95990000
98.75999940	140.15930000
98.79999940	134.76970000
98.83999940	125.78510000
98.87999940	115.00600000
98.91999940	104.22070000
98.95999940	91.64098000
98.99999940	79.06125000
99.03999940	68.28211000
99.07999940	55.70238000
99.11999940	46.71774000
99.15999940	35.93859000
99.19999940	26.95395000
99.23999940	16.16870000
99.27999940	7.18405700
99.31999940	-5.38956800
99.35999940	-16.16870000
99.39999940	-30.54292000
99.43999940	-43.12265000
99.47999940	-66.48762000
99.51999940	-88.04590000
99.55999939	-88.04590000
99.59999939	-91.64098000
99.63999939	-100.62560000
99.67999939	-104.22070000
99.71999939	-98.83114000
99.75999939	-86.25141000
99.79999939	-77.26676000
99.83999939	-73.67168000
99.87999939	-68.28211000
99.91999939	-61.09195000
99.95999939	-59.29746000
99.99999939	-59.29746000
100.03999939	-59.29746000
100.07999939	-59.29746000
100.11999939	-64.68703000
100.15999939	-61.09195000
100.19999939	-59.29746000
100.23999939	-57.50298000
100.27999939	-55.70238000
100.31999939	-50.31281000
100.35999939	-43.12265000
100.39999939	-35.93859000
100.43999939	-28.74844000
100.47999939	-21.55827000
100.51999939	-14.37422000
100.55999939	-5.38956800
100.59999939	0.00000000
100.63999939	10.77914000
100.67999939	19.76379000
100.71999939	30.54292000
100.75999939	41.32816000
100.79999939	53.90789000
100.83999939	70.07660000
100.87999939	82.65633000
100.91999939	93.44157000
100.95999939	109.61030000
100.99999939	122.19000000
101.03999939	131.17470000
101.07999939	136.56420000
101.11999939	136.56420000
101.15999939	131.17470000
101.19999938	120.39550000
101.23999938	109.61030000
101.27999938	100.62560000
101.31999938	89.84650000
101.35999938	75.47227000
101.39999938	62.89254000
101.43999938	52.10730000
101.47999938	43.12265000
101.51999938	35.93859000
101.55999938	37.73308000
101.59999938	50.31281000
101.63999938	37.73308000
101.67999938	10.77914000
101.71999938	-16.16870000
101.75999938	-35.93859000
101.79999938	-64.68703000
101.83999938	-100.62560000
101.87999938	-132.97520000
101.91999938	-145.54890000
101.95999938	-132.97520000
101.99999938	-115.00600000
102.03999938	-107.81580000
102.07999938	-93.44157000
102.11999938	-75.47227000
102.15999938	-52.10730000
102.19999938	-44.92325000
102.23999938	-48.51222000
102.27999938	-53.90789000
102.31999938	-52.10730000
102.35999938	-46.71774000
102.39999938	-46.71774000
102.43999938	-53.90789000
102.47999938	-57.50298000
102.51999938	-57.50298000
102.55999938	-55.70238000
102.59999938	-53.90789000
102.63999938	-55.70238000
102.67999938	-53.90789000
102.71999938	-50.31281000
102.75999938	-43.12265000
102.79999938	-37.73308000
102.83999937	-35.93859000
102.87999937	-32.34352000
102.91999937	-25.15336000
102.95999937	-12.57363000
102.99999937	1.79448800
103.03999937	16.16870000
103.07999937	28.74844000
103.11999937	46.71774000
103.15999937	62.89254000
103.19999937	79.06125000
103.23999937	91.64098000
103.27999937	102.42620000
103.31999937	115.00600000
103.35999937	127.57960000
103.39999937	134.76970000
103.43999937	136.56420000
103.47999937	134.76970000
103.51999937	129.38020000
103.55999937	122.19000000
103.59999937	115.00600000
103.63999937	100.62560000
103.67999937	88.04590000
103.71999937	75.47227000
103.75999937	61.09195000
103.79999937	48.51222000
103.83999937	35.93859000
103.87999937	25.15336000
103.91999937	17.96930000
103.95999937	12.57363000
103.99999937	5.38956800
104.03999937	-1.79448800
104.07999937	-14.37422000
104.11999937	-26.95395000
104.15999937	-41.32816000
104.19999937	-57.50298000
104.23999937	-71.87719000
104.27999937	-86.25141000
104.31999937	-97.03055000
104.35999937	-107.81580000
104.39999937	-106.01520000
104.43999937	-100.62560000
104.47999937	-89.84650000
104.51999936	-79.06125000
104.55999936	-71.87719000
104.59999936	-66.48762000
104.63999936	-64.68703000
104.67999936	-59.29746000
104.71999936	-59.29746000
104.75999936	-61.09195000
104.79999936	-64.68703000
104.83999936	-66.48762000
104.87999936	-66.48762000
104.91999936	-68.28211000
104.95999936	-66.48762000
104.99999936	-62.89254000
105.03999936	-55.70238000
105.07999936	-46.71774000
105.11999936	-35.93859000
105.15999936	-26.95395000
105.19999936	-19.76379000
105.23999936	-12.57363000
105.27999936	-7.18405700
105.31999936	-1.79448800
105.35999936	5.38956800
105.39999936	14.37422000
105.43999936	21.55827000
105.47999936	34.13800000
105.51999936	46.71774000
105.55999936	59.29746000
105.59999936	73.67168000
105.63999936	91.64098000
105.67999936	107.81580000
105.71999936	120.39550000
105.75999936	127.57960000
105.79999936	134.76970000
105.83999936	136.56420000
105.87999936	132.97520000
105.91999936	125.78510000
105.95999936	115.00600000
105.99999936	106.01520000
106.03999936	93.44157000
106.07999936	82.65633000
106.11999936	71.87719000
106.15999935	57.50298000
106.19999935	48.51222000
106.23999935	37.73308000
106.27999935	28.74844000
106.31999935	17.96930000
106.35999935	7.18405700
106.39999935	-3.58897700
106.43999935	-14.37422000
106.47999935	-28.74844000
106.51999935	-44.92325000
106.55999935	-61.09195000
106.59999935	-73.67168000
106.63999935	-86.25141000
106.67999935	-97.03055000
106.71999935	-104.22070000
106.75999935	-106.01520000
106.79999935	-104.22070000
106.83999935	-93.44157000
106.87999935	-86.25141000
106.91999935	-71.87719000
106.95999935	-66.48762000
106.99999935	-59.29746000
107.03999935	-57.50298000
107.07999935	-55.70238000
107.11999935	-57.50298000
107.15999935	-59.29746000
107.19999935	-61.09195000
107.23999935	-64.68703000
107.27999935	-64.68703000
107.31999935	-66.48762000
107.35999935	-62.89254000
107.39999935	-61.09195000
107.43999935	-55.70238000
107.47999935	-46.71774000
107.51999935	-37.73308000
107.55999935	-30.54292000
107.59999935	-21.55827000
107.63999935	-12.57363000
107.67999935	-3.58897700
107.71999935	3.58897700
107.75999935	14.37422000
107.79999934	23.35887000
107.83999934	34.13800000
107.87999934	44.92325000
107.91999934	57.50298000
107.95999934	71.87719000
107.99999934	86.25141000
108.03999934	100.62560000
108.07999934	116.80040000
108.11999934	129.38020000
108.15999934	136.56420000
108.19999934	138.36480000
108.23999934	134.76970000
108.27999934	129.38020000
108.31999934	118.59490000
108.35999934	107.81580000
108.39999934	95.23605000
108.43999934	84.45692000
108.47999934	73.67168000
108.51999934	59.29746000
108.55999934	50.31281000
108.59999934	39.52757000
108.63999934	30.54292000
108.67999934	21.55827000
108.71999934	12.57363000
108.75999934	1.79448800
108.79999934	-7.18405700
108.83999934	-23.35887000
108.87999934	-37.73308000
108.91999934	-53.90789000
108.95999934	-68.28211000
108.99999934	-82.65633000
109.03999934	-93.44157000
109.07999934	-100.62560000
109.11999934	-102.42620000
109.15999934	-98.83114000
109.19999934	-91.64098000
109.23999934	-77.26676000
109.27999934	-64.68703000
109.31999934	-66.48762000
109.35999934	-71.87719000
109.39999934	-55.70238000
109.43999933	-48.51222000
109.47999933	-55.70238000
109.51999933	-62.89254000
109.55999933	-64.68703000
109.59999933	-62.89254000
109.63999933	-62.89254000
109.67999933	-66.48762000
109.71999933	-64.68703000
109.75999933	-57.50298000
109.79999933	-53.90789000
109.83999933	-44.92325000
109.87999933	-35.93859000
109.91999933	-26.95395000
109.95999933	-21.55827000
109.99999933	-14.37422000
110.03999933	-7.18405700
110.07999933	0.00000000
110.11999933	7.18405700
110.15999933	19.76379000
110.19999933	30.54292000
110.23999933	41.32816000
110.27999933	53.90789000
110.31999933	68.28211000
110.35999933	84.45692000
110.39999933	100.62560000
110.43999933	115.00600000
110.47999933	127.57960000
110.51999933	138.36480000
110.55999933	143.75440000
110.59999933	140.15930000
110.63999933	131.17470000
110.67999933	122.19000000
110.71999933	111.41090000
110.75999933	95.23605000
110.79999933	86.25141000
110.83999933	75.47227000
110.87999933	64.68703000
110.91999933	52.10730000
110.95999933	41.32816000
110.99999933	32.34352000
111.03999933	25.15336000
111.07999932	14.37422000
111.11999932	3.58897700
111.15999932	-5.38956800
111.19999932	-17.96930000
111.23999932	-35.93859000
111.27999932	-50.31281000
111.31999932	-64.68703000
111.35999932	-80.86184000
111.39999932	-93.44157000
111.43999932	-100.62560000
111.47999932	-104.22070000
111.51999932	-102.42620000
111.55999932	-98.83114000
111.59999932	-82.65633000
111.63999932	-71.87719000
111.67999932	-64.68703000
111.71999932	-61.09195000
111.75999932	-57.50298000
111.79999932	-57.50298000
111.83999932	-59.29746000
111.87999932	-61.09195000
111.91999932	-62.89254000
111.95999932	-62.89254000
111.99999932	-64.68703000
112.03999932	-64.68703000
112.07999932	-64.68703000
112.11999932	-61.09195000
112.15999932	-55.70238000
112.19999932	-48.51222000
112.23999932	-37.73308000
112.27999932	-28.74844000
112.31999932	-21.55827000
112.35999932	-12.57363000
112.39999932	-3.58897700
112.43999932	3.58897700
112.47999932	12.57363000
112.51999932	21.55827000
112.55999932	32.34352000
112.59999932	43.12265000
112.63999932	50.31281000
112.67999932	68.28211000
112.71999931	80.86184000
112.75999931	93.44157000
112.79999931	111.41090000
112.83999931	122.19000000
112.87999931	132.97520000
112.91999931	136.56420000
112.95999931	134.76970000
112.99999931	129.38020000
113.03999931	120.39550000
113.07999931	113.20540000
113.11999931	100.62560000
113.15999931	89.84650000
113.19999931	77.26676000
113.23999931	64.68703000
113.27999931	55.70238000
113.31999931	44.92325000
113.35999931	34.13800000
113.39999931	25.15336000
113.43999931	14.37422000
113.47999931	5.38956800
113.51999931	-7.18405700
113.55999931	-17.96930000
113.59999931	-32.34352000
113.63999931	-48.51222000
113.67999931	-62.89254000
113.71999931	-79.06125000
113.75999931	-89.84650000
113.79999931	-100.62560000
113.83999931	-106.01520000
113.87999931	-104.22070000
113.91999931	-100.62560000
113.95999931	-89.84650000
113.99999931	-82.65633000
114.03999931	-71.87719000
114.07999931	-70.07660000
114.11999931	-66.48762000
114.15999931	-64.68703000
114.19999931	-68.28211000
114.23999931	-68.28211000
114.27999931	-68.28211000
114.31999931	-66.48762000
114.35999930	-64.68703000
114.39999930	-66.48762000
114.43999930	-64.68703000
114.47999930	-61.09195000
114.51999930	-55.70238000
114.55999930	-48.51222000
114.59999930	-39.52757000
114.63999930	-30.54292000
114.67999930	-23.35887000
114.71999930	-16.16870000
114.75999930	-8.98464900
114.79999930	-1.79448800
114.83999930	5.38956800
114.87999930	14.37422000
114.91999930	25.15336000
114.95999930	35.93859000
114.99999930	46.71774000
115.03999930	57.50298000
115.07999930	71.87719000
115.11999930	86.25141000
115.15999930	98.83114000
115.19999930	115.00600000
115.23999930	123.99060000
115.27999930	131.17470000
115.31999930	132.97520000
115.35999930	129.38020000
115.39999930	122.19000000
115.43999930	113.20540000
115.47999930	104.22070000
115.51999930	93.44157000
115.55999930	82.65633000
115.59999930	70.07660000
115.63999930	59.29746000
115.67999930	48.51222000
115.71999930	37.73308000
115.75999930	28.74844000
115.79999930	19.76379000
115.83999930	12.57363000
115.87999930	0.00000000
115.91999930	-8.98464900
115.95999930	-21.55827000
115.99999930	-39.52757000
116.03999929	-57.50298000
116.07999929	-71.87719000
116.11999929	-82.65633000
116.15999929	-93.44157000
116.19999929	-97.03055000
116.23999929	-100.62560000
116.27999929	-89.84650000
116.31999929	-79.06125000
116.35999929	-68.28211000
116.39999929	-64.68703000
116.43999929	-61.09195000
116.47999929	-55.70238000
116.51999929	-55.70238000
116.55999929	-55.70238000
116.59999929	-57.50298000
116.63999929	-57.50298000
116.67999929	-61.09195000
116.71999929	-64.68703000
116.75999929	-64.68703000
116.79999929	-64.68703000
116.83999929	-62.89254000
116.87999929	-57.50298000
116.91999929	-50.31281000
116.95999929	-41.32816000
116.99999929	-34.13800000
117.03999929	-26.95395000
117.07999929	-19.76379000
117.11999929	-14.37422000
117.15999929	-8.98464900
117.19999929	0.00000000
117.23999929	8.98464900
117.27999929	19.76379000
117.31999929	32.34352000
117.35999929	44.92325000
117.39999929	59.29746000
117.43999929	73.67168000
117.47999929	89.84650000
117.51999929	104.22070000
117.55999929	118.59490000
117.59999929	131.17470000
117.63999929	138.36480000
117.67999928	141.95990000
117.71999928	138.36480000
117.75999928	131.17470000
117.79999928	122.19000000
117.83999928	109.61030000
117.87999928	98.83114000
117.91999928	86.25141000
117.95999928	75.47227000
117.99999928	64.68703000
118.03999928	53.90789000
118.07999928	43.12265000
118.11999928	34.13800000
118.15999928	23.35887000
118.19999928	14.37422000
118.23999928	3.58897700
118.27999928	-7.18405700
118.31999928	-21.55827000
118.35999928	-35.93859000
118.39999928	-52.10730000
118.43999928	-66.48762000
118.47999928	-82.65633000
118.51999928	-93.44157000
118.55999928	-98.83114000
118.59999928	-100.62560000
118.63999928	-97.03055000
118.67999928	-86.25141000
118.71999928	-79.06125000
118.75999928	-71.87719000
118.79999928	-66.48762000
118.83999928	-61.09195000
118.87999928	-61.09195000
118.91999928	-59.29746000
118.95999928	-59.29746000
118.99999928	-59.29746000
119.03999928	-62.89254000
119.07999928	-62.89254000
119.11999928	-61.09195000
119.15999928	-62.89254000
119.19999928	-71.87719000
119.23999928	-57.50298000
119.27999928	-39.52757000
119.31999927	-35.93859000
119.35999927	-34.13800000
119.39999927	-26.95395000
119.43999927	-16.16870000
119.47999927	-5.38956800
119.51999927	-1.79448800
119.55999927	7.18405700
119.59999927	17.96930000
119.63999927	26.95395000
119.67999927	35.93859000
119.71999927	48.51222000
119.75999927	59.29746000
119.79999927	70.07660000
119.83999927	84.45692000
119.87999927	100.62560000
119.91999927	113.20540000
119.95999927	122.19000000
119.99999927	129.38020000
120.03999927	132.97520000
120.07999927	129.38020000
120.11999927	125.78510000
120.15999927	116.80040000
120.19999927	107.81580000
120.23999927	97.03055000
120.27999927	86.25141000
120.31999927	75.47227000
120.35999927	62.89254000
120.39999927	53.90789000
120.43999927	43.12265000
120.47999927	34.13800000
120.51999927	23.35887000
120.55999927	14.37422000
120.59999927	1.79448800
120.63999927	-8.98464900
120.67999927	-23.35887000
120.71999927	-35.93859000
120.75999927	-52.10730000
120.79999927	-66.48762000
120.83999927	-80.86184000
120.87999927	-93.44157000
120.91999927	-97.03055000
120.95999926	-100.62560000
120.99999926	-95.23605000
121.03999926	-89.84650000
121.07999926	-80.86184000
121.11999926	-75.47227000
121.15999926	-66.48762000
121.19999926	-64.68703000
121.23999926	-61.09195000
121.27999926	-61.09195000
121.31999926	-61.09195000
121.35999926	-61.09195000
121.39999926	-62.89254000
121.43999926	-64.68703000
121.47999926	-64.68703000
121.51999926	-64.68703000
121.55999926	-61.09195000
121.59999926	-57.50298000
121.63999926	-52.10730000
121.67999926	-43.12265000
121.71999926	-35.93859000
121.75999926	-26.95395000
121.79999926	-19.76379000
121.83999926	-12.57363000
121.87999926	-3.58897700
121.91999926	3.58897700
121.95999926	14.37422000
121.99999926	23.35887000
122.03999926	34.13800000
122.07999926	44.92325000
122.11999926	57.50298000
122.15999926	70.07660000
122.19999926	82.65633000
122.23999926	95.23605000
122.27999926	107.81580000
122.31999926	120.39550000
122.35999926	129.38020000
122.39999926	132.97520000
122.43999926	131.17470000
122.47999926	127.57960000
122.51999926	118.59490000
122.55999926	109.61030000
122.59999925	100.62560000
122.63999925	89.84650000
122.67999925	79.06125000
122.71999925	66.48762000
122.75999925	55.70238000
122.79999925	44.92325000
122.83999925	34.13800000
122.87999925	23.35887000
122.91999925	14.37422000
122.95999925	3.58897700
122.99999925	-8.98464900
123.03999925	-23.35887000
123.07999925	-35.93859000
123.11999925	-52.10730000
123.15999925	-66.48762000
123.19999925	-80.86184000
123.23999925	-91.64098000
123.27999925	-97.03055000
123.31999925	-97.03055000
123.35999925	-89.84650000
123.39999925	-82.65633000
123.43999925	-75.47227000
123.47999925	-71.87719000
123.51999925	-66.48762000
123.55999925	-62.89254000
123.59999925	-61.09195000
123.63999925	-59.29746000
123.67999925	-61.09195000
123.71999925	-57.50298000
123.75999925	-59.29746000
123.79999925	-61.09195000
123.83999925	-61.09195000
123.87999925	-61.09195000
123.91999925	-57.50298000
123.95999925	-53.90789000
123.99999925	-46.71774000
124.03999925	-44.92325000
124.07999925	-39.52757000
124.11999925	-30.54292000
124.15999925	-21.55827000
124.19999925	-14.37422000
124.23999924	-5.38956800
124.27999924	0.00000000
124.31999924	10.77914000
124.35999924	19.76379000
124.39999924	34.13800000
124.43999924	46.71774000
124.47999924	57.50298000
124.51999924	71.87719000
124.55999924	84.45692000
124.59999924	100.62560000
124.63999924	115.00600000
124.67999924	125.78510000
124.71999924	132.97520000
124.75999924	136.56420000
124.79999924	134.76970000
124.83999924	129.38020000
124.87999924	122.19000000
124.91999924	113.20540000
124.95999924	100.62560000
124.99999924	91.64098000
125.03999924	79.06125000
125.07999924	68.28211000
125.11999924	55.70238000
125.15999924	46.71774000
125.19999924	34.13800000
125.23999924	25.15336000
125.27999924	14.37422000
125.31999924	3.58897700
125.35999924	-7.18405700
125.39999924	-21.55827000
125.43999924	-35.93859000
125.47999924	-50.31281000
125.51999924	-64.68703000
125.55999924	-79.06125000
125.59999924	-89.84650000
125.63999924	-97.03055000
125.67999924	-93.44157000
125.71999924	-86.25141000
125.75999924	-86.25141000
125.79999924	-82.65633000
125.83999924	-75.47227000
125.87999923	-66.48762000
125.91999923	-62.89254000
125.95999923	-61.09195000
125.99999923	-61.09195000
126.03999923	-59.29746000
126.07999923	-59.29746000
126.11999923	-61.09195000
126.15999923	-64.68703000
126.19999923	-64.68703000
126.23999923	-62.89254000
126.27999923	-59.29746000
126.31999923	-55.70238000
126.35999923	-50.31281000
126.39999923	-39.52757000
126.43999923	-25.15336000
126.47999923	-7.18405700
126.51999923	5.38956800
126.55999923	10.77914000
126.59999923	8.98464900
126.63999923	5.38956800
126.67999923	3.58897700
126.71999923	1.79448800
126.75999923	1.79448800
126.79999923	5.38956800
126.83999923	21.55827000
126.87999923	46.71774000
126.91999923	71.87719000
126.95999923	93.44157000
126.99999923	113.20540000
127.03999923	132.97520000
127.07999923	145.54890000
127.11999923	150.94450000
127.15999923	145.54890000
127.19999923	136.56420000
127.23999923	129.38020000
127.27999923	120.39550000
127.31999923	109.61030000
127.35999923	97.03055000
127.39999923	84.45692000
127.43999923	71.87719000
127.47999923	61.09195000
127.51999923	48.51222000
127.55999922	35.93859000
127.59999922	21.55827000
127.63999922	8.98464900
127.67999922	-1.79448800
127.71999922	-16.16870000
127.75999922	-32.34352000
127.79999922	-48.51222000
127.83999922	-61.09195000
127.87999922	-73.67168000
127.91999922	-82.65633000
127.95999922	-89.84650000
127.99999922	-91.64098000
128.03999922	-88.04590000
128.07999922	-80.86184000
128.11999922	-73.67168000
128.15999922	-70.07660000
128.19999922	-66.48762000
128.23999922	-64.68703000
128.27999922	-62.89254000
128.31999922	-61.09195000
128.35999922	-62.89254000
128.39999922	-62.89254000
128.43999922	-62.89254000
128.47999922	-61.09195000
128.51999922	-64.68703000
128.55999922	-64.68703000
128.59999922	-66.48762000
128.63999922	-64.68703000
128.67999922	-62.89254000
128.71999922	-57.50298000
128.75999922	-50.31281000
128.79999922	-41.32816000
128.83999922	-32.34352000
128.87999922	-21.55827000
128.91999922	-10.77914000
128.95999922	0.00000000
128.99999922	10.77914000
129.03999922	7.18405700
129.07999922	23.35887000
129.11999922	46.71774000
129.15999922	55.70238000
129.19999921	59.29746000
129.23999921	70.07660000
129.27999921	86.25141000
129.31999921	102.42620000
129.35999921	113.20540000
129.39999921	122.19000000
129.43999921	129.38020000
129.47999921	134.76970000
129.51999921	131.17470000
129.55999921	127.57960000
129.59999921	120.39550000
129.63999921	109.61030000
129.67999921	98.83114000
129.71999921	88.04590000
129.75999921	79.06125000
129.79999921	64.68703000
129.83999921	53.90789000
129.87999921	44.92325000
129.91999921	35.93859000
129.95999921	26.95395000
129.99999921	17.96930000
130.03999921	8.98464900
130.07999921	-1.79448800
130.11999921	-16.16870000
130.15999921	-32.34352000
130.19999921	-46.71774000
130.23999921	-64.68703000
130.27999921	-80.86184000
130.31999921	-91.64098000
130.35999921	-100.62560000
130.39999921	-102.42620000
130.43999921	-100.62560000
130.47999921	-97.03055000
130.51999921	-88.04590000
130.55999921	-79.06125000
130.59999921	-77.26676000
130.63999921	-70.07660000
130.67999921	-66.48762000
130.71999921	-64.68703000
130.75999921	-64.68703000
130.79999921	-59.29746000
130.83999920	-57.50298000
130.87999920	-57.50298000
130.91999920	-59.29746000
130.95999920	-57.50298000
130.99999920	-55.70238000
131.03999920	-52.10730000
131.07999920	-48.51222000
131.11999920	-43.12265000
131.15999920	-34.13800000
131.19999920	-28.74844000
131.23999920	-23.35887000
131.27999920	-16.16870000
131.31999920	-8.98464900
131.35999920	-1.79448800
131.39999920	7.18405700
131.43999920	17.96930000
131.47999920	28.74844000
131.51999920	41.32816000
131.55999920	53.90789000
131.59999920	66.48762000
131.63999920	80.86184000
131.67999920	97.03055000
131.71999920	111.41090000
131.75999920	122.19000000
131.79999920	132.97520000
131.83999920	136.56420000
131.87999920	136.56420000
131.91999920	131.17470000
131.95999920	122.19000000
131.99999920	113.20540000
132.03999920	100.62560000
132.07999920	89.84650000
132.11999920	77.26676000
132.15999920	64.68703000
132.19999920	53.90789000
132.23999920	41.32816000
132.27999920	32.34352000
132.31999920	21.55827000
132.35999920	12.57363000
132.39999920	1.79448800
132.43999920	-8.98464900
132.47999919	-23.35887000
132.51999919	-35.93859000
132.55999919	-50.31281000
132.59999919	-66.48762000
132.63999919	-80.86184000
132.67999919	-89.84650000
132.71999919	-98.83114000
132.75999919	-95.23605000
132.79999919	-93.44157000
132.83999919	-82.65633000
132.87999919	-79.06125000
132.91999919	-71.87719000
132.95999919	-66.48762000
132.99999919	-62.89254000
133.03999919	-61.09195000
133.07999919	-61.09195000
133.11999919	-61.09195000
133.15999919	-62.89254000
133.19999919	-64.68703000
133.23999919	-64.68703000
133.27999919	-66.48762000
133.31999919	-66.48762000
133.35999919	-64.68703000
133.39999919	-59.29746000
133.43999919	-53.90789000
133.47999919	-44.92325000
133.51999919	-37.73308000
133.55999919	-28.74844000
133.59999919	-21.55827000
133.63999919	-12.57363000
133.67999919	-5.38956800
133.71999919	1.79448800
133.75999919	10.77914000
133.79999919	21.55827000
133.83999919	30.54292000
133.87999919	41.32816000
133.91999919	50.31281000
133.95999919	66.48762000
133.99999919	80.86184000
134.03999919	97.03055000
134.07999919	113.20540000
134.11999918	122.19000000
134.15999918	132.97520000
134.19999918	134.76970000
134.23999918	136.56420000
134.27999918	131.17470000
134.31999918	122.19000000
134.35999918	113.20540000
134.39999918	102.42620000
134.43999918	91.64098000
134.47999918	79.06125000
134.51999918	68.28211000
134.55999918	57.50298000
134.59999918	46.71774000
134.63999918	35.93859000
134.67999918	26.95395000
134.71999918	16.16870000
134.75999918	5.38956800
134.79999918	-3.58897700
134.83999918	-16.16870000
134.87999918	-30.54292000
134.91999918	-46.71774000
134.95999918	-61.09195000
134.99999918	-77.26676000
135.03999918	-88.04590000
135.07999918	-98.83114000
135.11999918	-102.42620000
135.15999918	-100.62560000
135.19999918	-95.23605000
135.23999918	-86.25141000
135.27999918	-77.26676000
135.31999918	-68.28211000
135.35999918	-61.09195000
135.39999918	-62.89254000
135.43999918	-62.89254000
135.47999918	-64.68703000
135.51999918	-59.29746000
135.55999918	-59.29746000
135.59999918	-62.89254000
135.63999918	-64.68703000
135.67999918	-64.68703000
135.71999918	-62.89254000
135.75999917	-59.29746000
135.79999917	-53.90789000
135.83999917	-46.71774000
135.87999917	-37.73308000
135.91999917	-30.54292000
135.95999917	-21.55827000
135.99999917	-16.16870000
136.03999917	-8.98464900
136.07999917	0.00000000
136.11999917	8.98464900
136.15999917	19.76379000
136.19999917	28.74844000
136.23999917	41.32816000
136.27999917	52.10730000
136.31999917	64.68703000
136.35999917	79.06125000
136.39999917	93.44157000
136.43999917	111.41090000
136.47999917	125.78510000
136.51999917	132.97520000
136.55999917	138.36480000
136.59999917	136.56420000
136.63999917	131.17470000
136.67999917	122.19000000
136.71999917	113.20540000
136.75999917	102.42620000
136.79999917	91.64098000
136.83999917	79.06125000
136.87999917	68.28211000
136.91999917	55.70238000
136.95999917	44.92325000
136.99999917	35.93859000
137.03999917	25.15336000
137.07999917	17.96930000
137.11999917	7.18405700
137.15999917	-3.58897700
137.19999917	-16.16870000
137.23999917	-30.54292000
137.27999917	-44.92325000
137.31999917	-61.09195000
137.35999917	-75.47227000
137.39999916	-88.04590000
137.43999916	-97.03055000
137.47999916	-100.62560000
137.51999916	-98.83114000
137.55999916	-91.64098000
137.59999916	-82.65633000
137.63999916	-75.47227000
137.67999916	-70.07660000
137.71999916	-64.68703000
137.75999916	-62.89254000
137.79999916	-61.09195000
137.83999916	-62.89254000
137.87999916	-62.89254000
137.91999916	-62.89254000
137.95999916	-64.68703000
137.99999916	-66.48762000
138.03999916	-66.48762000
138.07999916	-64.68703000
138.11999916	-61.09195000
138.15999916	-55.70238000
138.19999916	-48.51222000
138.23999916	-39.52757000
138.27999916	-32.34352000
138.31999916	-23.35887000
138.35999916	-16.16870000
138.39999916	-7.18405700
138.43999916	0.00000000
138.47999916	7.18405700
138.51999916	17.96930000
138.55999916	28.74844000
138.59999916	41.32816000
138.63999916	52.10730000
138.67999916	62.89254000
138.71999916	77.26676000
138.75999916	91.64098000
138.79999916	106.01520000
138.83999916	122.19000000
138.87999916	122.19000000
138.91999916	122.19000000
138.95999916	140.15930000
138.99999916	140.15930000
139.03999915	127.57960000
139.07999915	113.20540000
139.11999915	102.42620000
139.15999915	97.03055000
139.19999915	84.45692000
139.23999915	70.07660000
139.27999915	61.09195000
139.31999915	50.31281000
139.35999915	37.73308000
139.39999915	28.74844000
139.43999915	19.76379000
139.47999915	8.98464900
139.51999915	-1.79448800
139.55999915	-14.37422000
139.59999915	-25.15336000
139.63999915	-41.32816000
139.67999915	-57.50298000
139.71999915	-71.87719000
139.75999915	-84.45692000
139.79999915	-95.23605000
139.83999915	-100.62560000
139.87999915	-106.01520000
139.91999915	-97.03055000
139.95999915	-91.64098000
139.99999915	-77.26676000
140.03999915	-70.07660000
140.07999915	-59.29746000
140.11999915	-57.50298000
140.15999915	-53.90789000
140.19999915	-53.90789000
140.23999915	-57.50298000
140.27999915	-57.50298000
140.31999915	-57.50298000
140.35999915	-62.89254000
140.39999915	-61.09195000
140.43999915	-62.89254000
140.47999915	-61.09195000
140.51999915	-57.50298000
140.55999915	-50.31281000
140.59999915	-43.12265000
140.63999915	-35.93859000
140.67999915	-28.74844000
140.71999914	-19.76379000
140.75999914	-10.77914000
140.79999914	-3.58897700
140.83999914	1.79448800
140.87999914	12.57363000
140.91999914	25.15336000
140.95999914	35.93859000
140.99999914	48.51222000
141.03999914	62.89254000
141.07999914	79.06125000
141.11999914	93.44157000
141.15999914	107.81580000
141.19999914	123.99060000
141.23999914	136.56420000
141.27999914	141.95990000
141.31999914	140.15930000
141.35999914	136.56420000
141.39999914	127.57960000
141.43999914	115.00600000
141.47999914	106.01520000
141.51999914	93.44157000
141.55999914	82.65633000
141.59999914	71.87719000
141.63999914	59.29746000
141.67999914	48.51222000
141.71999914	37.73308000
141.75999914	28.74844000
141.79999914	19.76379000
141.83999914	8.98464900
141.87999914	-1.79448800
141.91999914	-14.37422000
141.95999914	-28.74844000
141.99999914	-43.12265000
142.03999914	-59.29746000
142.07999914	-73.67168000
142.11999914	-86.25141000
142.15999914	-97.03055000
142.19999914	-100.62560000
142.23999914	-102.42620000
142.27999914	-98.83114000
142.31999914	-93.44157000
142.35999913	-86.25141000
142.39999913	-80.86184000
142.43999913	-71.87719000
142.47999913	-68.28211000
142.51999913	-62.89254000
142.55999913	-57.50298000
142.59999913	-57.50298000
142.63999913	-57.50298000
142.67999913	-57.50298000
142.71999913	-59.29746000
142.75999913	-61.09195000
142.79999913	-59.29746000
142.83999913	-57.50298000
142.87999913	-53.90789000
142.91999913	-48.51222000
142.95999913	-41.32816000
142.99999913	-34.13800000
143.03999913	-26.95395000
143.07999913	-17.96930000
143.11999913	-10.77914000
143.15999913	-3.58897700
143.19999913	5.38956800
143.23999913	14.37422000
143.27999913	25.15336000
143.31999913	35.93859000
143.35999913	48.51222000
143.39999913	59.29746000
143.43999913	73.67168000
143.47999913	88.04590000
143.51999913	100.62560000
143.55999913	116.80040000
143.59999913	129.38020000
143.63999913	136.56420000
143.67999913	136.56420000
143.71999913	132.97520000
143.75999913	122.19000000
143.79999913	115.00600000
143.83999913	104.22070000
143.87999913	95.23605000
143.91999913	84.45692000
143.95999913	71.87719000
143.99999912	57.50298000
144.03999912	48.51222000
144.07999912	35.93859000
144.11999912	28.74844000
144.15999912	17.96930000
144.19999912	8.98464900
144.23999912	-1.79448800
144.27999912	-14.37422000
144.31999912	-28.74844000
144.35999912	-43.12265000
144.39999912	-59.29746000
144.43999912	-75.47227000
144.47999912	-88.04590000
144.51999912	-97.03055000
144.55999912	-102.42620000
144.59999912	-106.01520000
144.63999912	-100.62560000
144.67999912	-97.03055000
144.71999912	-84.45692000
144.75999912	-79.06125000
144.79999912	-68.28211000
144.83999912	-64.68703000
144.87999912	-61.09195000
144.91999912	-61.09195000
144.95999912	-59.29746000
144.99999912	-61.09195000
145.03999912	-62.89254000
145.07999912	-61.09195000
145.11999912	-59.29746000
145.15999912	-62.89254000
145.19999912	-64.68703000
145.23999912	-61.09195000
145.27999912	-52.10730000
145.31999912	-43.12265000
145.35999912	-35.93859000
145.39999912	-30.54292000
145.43999912	-21.55827000
145.47999912	-12.57363000
145.51999912	-3.58897700
145.55999912	1.79448800
145.59999912	12.57363000
145.63999911	21.55827000
145.67999911	34.13800000
145.71999911	44.92325000
145.75999911	57.50298000
145.79999911	70.07660000
145.83999911	84.45692000
145.87999911	100.62560000
145.91999911	116.80040000
145.95999911	129.38020000
145.99999911	136.56420000
146.03999911	136.56420000
146.07999911	136.56420000
146.11999911	129.38020000
146.15999911	118.59490000
146.19999911	107.81580000
146.23999911	95.23605000
146.27999911	84.45692000
146.31999911	71.87719000
146.35999911	61.09195000
146.39999911	48.51222000
146.43999911	37.73308000
146.47999911	28.74844000
146.51999911	19.76379000
146.55999911	10.77914000
146.59999911	0.00000000
146.63999911	-10.77914000
146.67999911	-23.35887000
146.71999911	-39.52757000
146.75999911	-53.90789000
146.79999911	-70.07660000
146.83999911	-84.45692000
146.87999911	-95.23605000
146.91999911	-102.42620000
146.95999911	-104.22070000
146.99999911	-102.42620000
147.03999911	-95.23605000
147.07999911	-88.04590000
147.11999911	-79.06125000
147.15999911	-73.67168000
147.19999911	-68.28211000
147.23999911	-64.68703000
147.27999910	-62.89254000
147.31999910	-62.89254000
147.35999910	-62.89254000
147.39999910	-64.68703000
147.43999910	-64.68703000
147.47999910	-64.68703000
147.51999910	-64.68703000
147.55999910	-62.89254000
147.59999910	-57.50298000
147.63999910	-52.10730000
147.67999910	-44.92325000
147.71999910	-37.73308000
147.75999910	-28.74844000
147.79999910	-21.55827000
147.83999910	-14.37422000
147.87999910	-7.18405700
147.91999910	0.00000000
147.95999910	7.18405700
147.99999910	17.96930000
148.03999910	28.74844000
148.07999910	41.32816000
148.11999910	52.10730000
148.15999910	64.68703000
148.19999910	80.86184000
148.23999910	95.23605000
148.27999910	111.41090000
148.31999910	123.99060000
148.35999910	134.76970000
148.39999910	138.36480000
148.43999910	136.56420000
148.47999910	131.17470000
148.51999910	122.19000000
148.55999910	113.20540000
148.59999910	100.62560000
148.63999910	89.84650000
148.67999910	79.06125000
148.71999910	55.70238000
148.75999910	44.92325000
148.79999910	46.71774000
148.83999910	39.52757000
148.87999910	23.35887000
148.91999909	10.77914000
148.95999909	1.79448800
148.99999909	-3.58897700
149.03999909	-19.76379000
149.07999909	-41.32816000
149.11999909	-68.28211000
149.15999909	-102.42620000
149.19999909	-106.01520000
149.23999909	-93.44157000
149.27999909	-95.23605000
149.31999909	-102.42620000
149.35999909	-84.45692000
149.39999909	-52.10730000
149.43999909	-34.13800000
149.47999909	-41.32816000
149.51999909	-57.50298000
149.55999909	-61.09195000
149.59999909	-61.09195000
149.63999909	-61.09195000
149.67999909	-75.47227000
149.71999909	-86.25141000
149.75999909	-82.65633000
149.79999909	-71.87719000
149.83999909	-68.28211000
149.87999909	-75.47227000
149.91999909	-77.26676000
149.95999909	-70.07660000
149.99999909	-59.29746000
150.03999909	-50.31281000
150.07999909	-48.51222000
150.11999909	-39.52757000
150.15999909	-28.74844000
150.19999909	-17.96930000
150.23999909	-10.77914000
150.27999909	0.00000000
150.31999909	10.77914000
150.35999909	25.15336000
150.39999909	35.93859000
150.43999909	52.10730000
150.47999909	62.89254000
150.51999909	70.07660000
150.55999908	79.06125000
150.59999908	93.44157000
150.63999908	106.01520000
150.67999908	113.20540000
150.71999908	118.59490000
150.75999908	125.78510000
150.79999908	129.38020000
150.83999908	127.57960000
150.87999908	122.19000000
150.91999908	113.20540000
150.95999908	106.01520000
150.99999908	93.44157000
151.03999908	82.65633000
151.07999908	70.07660000
151.11999908	55.70238000
151.15999908	46.71774000
151.19999908	37.73308000
151.23999908	32.34352000
151.27999908	23.35887000
151.31999908	14.37422000
151.35999908	5.38956800
151.39999908	-7.18405700
151.43999908	-21.55827000
151.47999908	-39.52757000
151.51999908	-57.50298000
151.55999908	-73.67168000
151.59999908	-91.64098000
151.63999908	-102.42620000
151.67999908	-107.81580000
151.71999908	-106.01520000
151.75999908	-100.62560000
151.79999908	-91.64098000
151.83999908	-82.65633000
151.87999908	-73.67168000
151.91999908	-70.07660000
151.95999908	-59.29746000
151.99999908	-55.70238000
152.03999908	-52.10730000
152.07999908	-53.90789000
152.11999908	-53.90789000
152.15999908	-55.70238000
152.19999908	-57.50298000
152.23999907	-59.29746000
152.27999907	-59.29746000
152.31999907	-57.50298000
152.35999907	-53.90789000
152.39999907	-46.71774000
152.43999907	-41.32816000
152.47999907	-35.93859000
152.51999907	-28.74844000
152.55999907	-23.35887000
152.59999907	-17.96930000
152.63999907	-12.57363000
152.67999907	-3.58897700
152.71999907	7.18405700
152.75999907	19.76379000
152.79999907	34.13800000
152.83999907	48.51222000
152.87999907	62.89254000
152.91999907	80.86184000
152.95999907	98.83114000
152.99999907	115.00600000
153.03999907	129.38020000
153.07999907	140.15930000
153.11999907	145.54890000
153.15999907	143.75440000
153.19999907	138.36480000
153.23999907	127.57960000
153.27999907	116.80040000
153.31999907	106.01520000
153.35999907	93.44157000
153.39999907	80.86184000
153.43999907	70.07660000
153.47999907	57.50298000
153.51999907	46.71774000
153.55999907	35.93859000
153.59999907	21.55827000
153.63999907	16.16870000
153.67999907	7.18405700
153.71999907	0.00000000
153.75999907	-12.57363000
153.79999907	-28.74844000
153.83999907	-43.12265000
153.87999906	-59.29746000
153.91999906	-73.67168000
153.95999906	-86.25141000
153.99999906	-95.23605000
154.03999906	-102.42620000
154.07999906	-100.62560000
154.11999906	-97.03055000
154.15999906	-91.64098000
154.19999906	-82.65633000
154.23999906	-73.67168000
154.27999906	-64.68703000
154.31999906	-62.89254000
154.35999906	-59.29746000
154.39999906	-59.29746000
154.43999906	-61.09195000
154.47999906	-61.09195000
154.51999906	-64.68703000
154.55999906	-62.89254000
154.59999906	-64.68703000
154.63999906	-64.68703000
154.67999906	-61.09195000
154.71999906	-57.50298000
154.75999906	-50.31281000
154.79999906	-43.12265000
154.83999906	-32.34352000
154.87999906	-23.35887000
154.91999906	-12.57363000
154.95999906	-3.58897700
154.99999906	0.00000000
155.03999906	5.38956800
155.07999906	14.37422000
155.11999906	26.95395000
155.15999906	37.73308000
155.19999906	48.51222000
155.23999906	57.50298000
155.27999906	71.87719000
155.31999906	88.04590000
155.35999906	102.42620000
155.39999906	116.80040000
155.43999906	129.38020000
155.47999906	136.56420000
155.51999905	138.36480000
155.55999905	132.97520000
155.59999905	123.99060000
155.63999905	115.00600000
155.67999905	104.22070000
155.71999905	93.44157000
155.75999905	80.86184000
155.79999905	70.07660000
155.83999905	57.50298000
155.87999905	48.51222000
155.91999905	37.73308000
155.95999905	28.74844000
155.99999905	19.76379000
156.03999905	8.98464900
156.07999905	0.00000000
156.11999905	-14.37422000
156.15999905	-28.74844000
156.19999905	-43.12265000
156.23999905	-59.29746000
156.27999905	-71.87719000
156.31999905	-86.25141000
156.35999905	-95.23605000
156.39999905	-98.83114000
156.43999905	-98.83114000
156.47999905	-91.64098000
156.51999905	-86.25141000
156.55999905	-79.06125000
156.59999905	-71.87719000
156.63999905	-66.48762000
156.67999905	-62.89254000
156.71999905	-61.09195000
156.75999905	-61.09195000
156.79999905	-61.09195000
156.83999905	-61.09195000
156.87999905	-64.68703000
156.91999905	-64.68703000
156.95999905	-64.68703000
156.99999905	-62.89254000
157.03999905	-61.09195000
157.07999905	-57.50298000
157.11999905	-50.31281000
157.15999904	-43.12265000
157.19999904	-34.13800000
157.23999904	-25.15336000
157.27999904	-17.96930000
157.31999904	-8.98464900
157.35999904	-3.58897700
157.39999904	5.38956800
157.43999904	14.37422000
157.47999904	23.35887000
157.51999904	35.93859000
157.55999904	46.71774000
157.59999904	59.29746000
157.63999904	73.67168000
157.67999904	86.25141000
157.71999904	102.42620000
157.75999904	116.80040000
157.79999904	129.38020000
157.83999904	134.76970000
157.87999904	134.76970000
157.91999904	132.97520000
157.95999904	127.57960000
157.99999904	118.59490000
158.03999904	107.81580000
158.07999904	97.03055000
158.11999904	84.45692000
158.15999904	73.67168000
158.19999904	61.09195000
158.23999904	50.31281000
158.27999904	41.32816000
158.31999904	30.54292000
158.35999904	21.55827000
158.39999904	12.57363000
158.43999904	0.00000000
158.47999904	-8.98464900
158.51999904	-21.55827000
158.55999904	-46.71774000
158.59999904	-61.09195000
158.63999904	-64.68703000
158.67999904	-77.26676000
158.71999904	-95.23605000
158.75999904	-104.22070000
158.79999903	-102.42620000
158.83999903	-95.23605000
158.87999903	-86.25141000
158.91999903	-80.86184000
158.95999903	-71.87719000
158.99999903	-64.68703000
159.03999903	-62.89254000
159.07999903	-59.29746000
159.11999903	-57.50298000
159.15999903	-57.50298000
159.19999903	-59.29746000
159.23999903	-61.09195000
159.27999903	-61.09195000
159.31999903	-61.09195000
159.35999903	-61.09195000
159.39999903	-59.29746000
159.43999903	-55.70238000
159.47999903	-50.31281000
159.51999903	-43.12265000
159.55999903	-34.13800000
159.59999903	-26.95395000
159.63999903	-19.76379000
159.67999903	-12.57363000
159.71999903	-5.38956800
159.75999903	3.58897700
159.79999903	12.57363000
159.83999903	23.35887000
159.87999903	35.93859000
159.91999903	48.51222000
159.95999903	57.50298000
159.99999903	73.67168000
160.03999903	91.64098000
160.07999903	104.22070000
160.11999903	120.39550000
160.15999903	132.97520000
160.19999903	140.15930000
160.23999903	138.36480000
160.27999903	132.97520000
160.31999903	125.78510000
160.35999903	116.80040000
160.39999903	106.01520000
160.43999902	93.44157000
160.47999902	82.65633000
160.51999902	71.87719000
160.55999902	59.29746000
160.59999902	48.51222000
160.63999902	37.73308000
160.67999902	28.74844000
160.71999902	21.55827000
160.75999902	10.77914000
160.79999902	0.00000000
160.83999902	-10.77914000
160.87999902	-25.15336000
160.91999902	-39.52757000
160.95999902	-55.70238000
160.99999902	-70.07660000
161.03999902	-84.45692000
161.07999902	-93.44157000
161.11999902	-98.83114000
161.15999902	-98.83114000
161.19999902	-97.03055000
161.23999902	-91.64098000
161.27999902	-84.45692000
161.31999902	-77.26676000
161.35999902	-71.87719000
161.39999902	-68.28211000
161.43999902	-64.68703000
161.47999902	-62.89254000
161.51999902	-62.89254000
161.55999902	-62.89254000
161.59999902	-64.68703000
161.63999902	-64.68703000
161.67999902	-62.89254000
161.71999902	-62.89254000
161.75999902	-59.29746000
161.79999902	-53.90789000
161.83999902	-48.51222000
161.87999902	-41.32816000
161.91999902	-34.13800000
161.95999902	-25.15336000
161.99999902	-16.16870000
162.03999902	-8.98464900
162.07999901	-1.79448800
162.11999901	5.38956800
162.15999901	14.37422000
162.19999901	25.15336000
162.23999901	35.93859000
162.27999901	46.71774000
162.31999901	57.50298000
162.35999901	70.07660000
162.39999901	86.25141000
162.43999901	100.62560000
162.47999901	113.20540000
162.51999901	125.78510000
162.55999901	131.17470000
162.59999901	132.97520000
162.63999901	131.17470000
162.67999901	125.78510000
162.71999901	116.80040000
162.75999901	106.01520000
162.79999901	95.23605000
162.83999901	84.45692000
162.87999901	71.87719000
162.91999901	61.09195000
162.95999901	50.31281000
162.99999901	39.52757000
163.03999901	30.54292000
163.07999901	21.55827000
163.11999901	12.57363000
163.15999901	0.00000000
163.19999901	-8.98464900
163.23999901	-23.35887000
163.27999901	-35.93859000
163.31999901	-52.10730000
163.35999901	-68.28211000
163.39999901	-82.65633000
163.43999901	-97.03055000
163.47999901	-100.62560000
163.51999901	-100.62560000
163.55999901	-93.44157000
163.59999901	-88.04590000
163.63999901	-82.65633000
163.67999901	-75.47227000
163.71999900	-70.07660000
163.75999900	-64.68703000
163.79999900	-61.09195000
163.83999900	-61.09195000
163.87999900	-59.29746000
163.91999900	-61.09195000
163.95999900	-62.89254000
163.99999900	-64.68703000
164.03999900	-64.68703000
164.07999900	-64.68703000
164.11999900	-61.09195000
164.15999900	-57.50298000
164.19999900	-50.31281000
164.23999900	-44.92325000
164.27999900	-37.73308000
164.31999900	-28.74844000
164.35999900	-21.55827000
164.39999900	-14.37422000
164.43999900	-7.18405700
164.47999900	1.79448800
164.51999900	10.77914000
164.55999900	21.55827000
164.59999900	32.34352000
164.63999900	43.12265000
164.67999900	57.50298000
164.71999900	73.67168000
164.75999900	84.45692000
164.79999900	97.03055000
164.83999900	107.81580000
164.87999900	122.19000000
164.91999900	131.17470000
164.95999900	132.97520000
164.99999900	129.38020000
165.03999900	125.78510000
165.07999900	116.80040000
165.11999900	107.81580000
165.15999900	97.03055000
165.19999900	86.25141000
165.23999900	75.47227000
165.27999900	62.89254000
165.31999900	53.90789000
165.35999900	41.32816000
165.39999899	30.54292000
165.43999899	21.55827000
165.47999899	12.57363000
165.51999899	1.79448800
165.55999899	-10.77914000
165.59999899	-23.35887000
165.63999899	-37.73308000
165.67999899	-52.10730000
165.71999899	-66.48762000
165.75999899	-80.86184000
165.79999899	-93.44157000
165.83999899	-100.62560000
165.87999899	-102.42620000
165.91999899	-100.62560000
165.95999899	-91.64098000
165.99999899	-84.45692000
166.03999899	-71.87719000
166.07999899	-68.28211000
166.11999899	-61.09195000
166.15999899	-59.29746000
166.19999899	-57.50298000
166.23999899	-57.50298000
166.27999899	-59.29746000
166.31999899	-61.09195000
166.35999899	-61.09195000
166.39999899	-62.89254000
166.43999899	-62.89254000
166.47999899	-61.09195000
166.51999899	-57.50298000
166.55999899	-52.10730000
166.59999899	-43.12265000
166.63999899	-35.93859000
166.67999899	-28.74844000
166.71999899	-21.55827000
166.75999899	-12.57363000
166.79999899	-5.38956800
166.83999899	3.58897700
166.87999899	12.57363000
166.91999899	21.55827000
166.95999899	32.34352000
166.99999899	43.12265000
167.03999898	55.70238000
167.07999898	70.07660000
167.11999898	82.65633000
167.15999898	100.62560000
167.19999898	113.20540000
167.23999898	125.78510000
167.27999898	132.97520000
167.31999898	134.76970000
167.35999898	131.17470000
167.39999898	125.78510000
167.43999898	116.80040000
167.47999898	107.81580000
167.51999898	95.23605000
167.55999898	82.65633000
167.59999898	71.87719000
167.63999898	61.09195000
167.67999898	50.31281000
167.71999898	37.73308000
167.75999898	28.74844000
167.79999898	19.76379000
167.83999898	8.98464900
167.87999898	-1.79448800
167.91999898	-12.57363000
167.95999898	-26.95395000
167.99999898	-41.32816000
168.03999898	-55.70238000
168.07999898	-71.87719000
168.11999898	-84.45692000
168.15999898	-93.44157000
168.19999898	-97.03055000
168.23999898	-95.23605000
168.27999898	-91.64098000
168.31999898	-84.45692000
168.35999898	-75.47227000
168.39999898	-82.65633000
168.43999898	-73.67168000
168.47999898	-57.50298000
168.51999898	-55.70238000
168.55999898	-61.09195000
168.59999898	-62.89254000
168.63999898	-62.89254000
168.67999897	-57.50298000
168.71999897	-62.89254000
168.75999897	-62.89254000
168.79999897	-61.09195000
168.83999897	-57.50298000
168.87999897	-53.90789000
168.91999897	-46.71774000
168.95999897	-37.73308000
168.99999897	-34.13800000
169.03999897	-25.15336000
169.07999897	-17.96930000
169.11999897	-8.98464900
169.15999897	-1.79448800
169.19999897	7.18405700
169.23999897	16.16870000
169.27999897	26.95395000
169.31999897	37.73308000
169.35999897	48.51222000
169.39999897	61.09195000
169.43999897	73.67168000
169.47999897	88.04590000
169.51999897	100.62560000
169.55999897	115.00600000
169.59999897	127.57960000
169.63999897	132.97520000
169.67999897	136.56420000
169.71999897	132.97520000
169.75999897	122.19000000
169.79999897	115.00600000
169.83999897	106.01520000
169.87999897	91.64098000
169.91999897	80.86184000
169.95999897	70.07660000
169.99999897	59.29746000
170.03999897	46.71774000
170.07999897	35.93859000
170.11999897	26.95395000
170.15999897	17.96930000
170.19999897	7.18405700
170.23999897	-3.58897700
170.27999897	-14.37422000
170.31999896	-26.95395000
170.35999896	-43.12265000
170.39999896	-57.50298000
170.43999896	-73.67168000
170.47999896	-86.25141000
170.51999896	-95.23605000
170.55999896	-100.62560000
170.59999896	-98.83114000
170.63999896	-91.64098000
170.67999896	-82.65633000
170.71999896	-73.67168000
170.75999896	-66.48762000
170.79999896	-62.89254000
170.83999896	-59.29746000
170.87999896	-55.70238000
170.91999896	-55.70238000
170.95999896	-55.70238000
170.99999896	-57.50298000
171.03999896	-59.29746000
171.07999896	-61.09195000
171.11999896	-61.09195000
171.15999896	-61.09195000
171.19999896	-57.50298000
171.23999896	-53.90789000
171.27999896	-46.71774000
171.31999896	-39.52757000
171.35999896	-34.13800000
171.39999896	-25.15336000
171.43999896	-17.96930000
171.47999896	-8.98464900
171.51999896	-1.79448800
171.55999896	8.98464900
171.59999896	19.76379000
171.63999896	30.54292000
171.67999896	43.12265000
171.71999896	55.70238000
171.75999896	68.28211000
171.79999896	82.65633000
171.83999896	95.23605000
171.87999896	111.41090000
171.91999896	125.78510000
171.95999895	132.97520000
171.99999895	136.56420000
172.03999895	132.97520000
172.07999895	129.38020000
172.11999895	122.19000000
172.15999895	111.41090000
172.19999895	100.62560000
172.23999895	91.64098000
172.27999895	77.26676000
172.31999895	68.28211000
172.35999895	53.90789000
172.39999895	43.12265000
172.43999895	34.13800000
172.47999895	23.35887000
172.51999895	14.37422000
172.55999895	3.58897700
172.59999895	-8.98464900
172.63999895	-28.74844000
172.67999895	-50.31281000
172.71999895	-71.87719000
172.75999895	-88.04590000
172.79999895	-100.62560000
172.83999895	-100.62560000
172.87999895	-95.23605000
172.91999895	-84.45692000
172.95999895	-66.48762000
172.99999895	-50.31281000
173.03999895	-35.93859000
173.07999895	-35.93859000
173.11999895	-37.73308000
173.15999895	-50.31281000
173.19999895	-57.50298000
173.23999895	-66.48762000
173.27999895	-75.47227000
173.31999895	-77.26676000
173.35999895	-77.26676000
173.39999895	-71.87719000
173.43999895	-71.87719000
173.47999895	-71.87719000
173.51999895	-70.07660000
173.55999895	-70.07660000
173.59999894	-59.29746000
173.63999894	-50.31281000
173.67999894	-43.12265000
173.71999894	-32.34352000
173.75999894	-23.35887000
173.79999894	-14.37422000
173.83999894	-1.79448800
173.87999894	7.18405700
173.91999894	21.55827000
173.95999894	35.93859000
173.99999894	48.51222000
174.03999894	61.09195000
174.07999894	70.07660000
174.11999894	79.06125000
174.15999894	89.84650000
174.19999894	100.62560000
174.23999894	109.61030000
174.27999894	118.59490000
174.31999894	122.19000000
174.35999894	125.78510000
174.39999894	123.99060000
174.43999894	120.39550000
174.47999894	115.00600000
174.51999894	107.81580000
174.55999894	98.83114000
174.59999894	86.25141000
174.63999894	75.47227000
174.67999894	61.09195000
174.71999894	50.31281000
174.75999894	39.52757000
174.79999894	32.34352000
174.83999894	25.15336000
174.87999894	17.96930000
174.91999894	7.18405700
174.95999894	-1.79448800
174.99999894	-16.16870000
175.03999894	-32.34352000
175.07999894	-46.71774000
175.11999894	-64.68703000
175.15999894	-84.45692000
175.19999894	-100.62560000
175.23999893	-106.01520000
175.27999893	-107.81580000
175.31999893	-100.62560000
175.35999893	-93.44157000
175.39999893	-84.45692000
175.43999893	-77.26676000
175.47999893	-68.28211000
175.51999893	-64.68703000
175.55999893	-61.09195000
175.59999893	-59.29746000
175.63999893	-57.50298000
175.67999893	-55.70238000
175.71999893	-57.50298000
175.75999893	-59.29746000
175.79999893	-59.29746000
175.83999893	-59.29746000
175.87999893	-57.50298000
175.91999893	-53.90789000
175.95999893	-46.71774000
175.99999893	-39.52757000
176.03999893	-32.34352000
176.07999893	-25.15336000
176.11999893	-17.96930000
176.15999893	-12.57363000
176.19999893	-5.38956800
176.23999893	3.58897700
176.27999893	12.57363000
176.31999893	23.35887000
176.35999893	34.13800000
176.39999893	46.71774000
176.43999893	59.29746000
176.47999893	73.67168000
176.51999893	89.84650000
176.55999893	104.22070000
176.59999893	118.59490000
176.63999893	129.38020000
176.67999893	134.76970000
176.71999893	136.56420000
176.75999893	132.97520000
176.79999893	123.99060000
176.83999893	115.00600000
176.87999893	106.01520000
176.91999892	93.44157000
176.95999892	82.65633000
176.99999892	70.07660000
177.03999892	57.50298000
177.07999892	46.71774000
177.11999892	35.93859000
177.15999892	25.15336000
177.19999892	14.37422000
177.23999892	5.38956800
177.27999892	-3.58897700
177.31999892	-16.16870000
177.35999892	-28.74844000
177.39999892	-43.12265000
177.43999892	-57.50298000
177.47999892	-71.87719000
177.51999892	-84.45692000
177.55999892	-93.44157000
177.59999892	-97.03055000
177.63999892	-97.03055000
177.67999892	-91.64098000
177.71999892	-84.45692000
177.75999892	-77.26676000
177.79999892	-70.07660000
177.83999892	-64.68703000
177.87999892	-62.89254000
177.91999892	-61.09195000
177.95999892	-59.29746000
177.99999892	-61.09195000
178.03999892	-61.09195000
178.07999892	-62.89254000
178.11999892	-62.89254000
178.15999892	-62.89254000
178.19999892	-59.29746000
178.23999892	-68.28211000
178.27999892	-61.09195000
178.31999892	-41.32816000
178.35999892	-32.34352000
178.39999892	-30.54292000
178.43999892	-25.15336000
178.47999892	-16.16870000
178.51999892	-3.58897700
178.55999891	1.79448800
178.59999891	7.18405700
178.63999891	17.96930000
178.67999891	28.74844000
178.71999891	35.93859000
178.75999891	48.51222000
178.79999891	61.09195000
178.83999891	73.67168000
178.87999891	86.25141000
178.91999891	104.22070000
178.95999891	120.39550000
178.99999891	129.38020000
179.03999891	134.76970000
179.07999891	134.76970000
179.11999891	131.17470000
179.15999891	122.19000000
179.19999891	113.20540000
179.23999891	102.42620000
179.27999891	91.64098000
179.31999891	77.26676000
179.35999891	64.68703000
179.39999891	55.70238000
179.43999891	44.92325000
179.47999891	34.13800000
179.51999891	25.15336000
179.55999891	16.16870000
179.59999891	7.18405700
179.63999891	-3.58897700
179.67999891	-16.16870000
179.71999891	-30.54292000
179.75999891	-44.92325000
179.79999891	-61.09195000
179.83999891	-73.67168000
179.87999891	-88.04590000
179.91999891	-97.03055000
179.95999891	-102.42620000
179.99999891	-97.03055000
180.03999891	-93.44157000
180.07999891	-84.45692000
180.11999891	-71.87719000
180.15999891	-68.28211000
180.19999890	-62.89254000
180.23999890	-59.29746000
180.27999890	-57.50298000
180.31999890	-57.50298000
180.35999890	-59.29746000
180.39999890	-59.29746000
180.43999890	-61.09195000
180.47999890	-61.09195000
180.51999890	-62.89254000
180.55999890	-61.09195000
180.59999890	-57.50298000
180.63999890	-53.90789000
180.67999890	-46.71774000
180.71999890	-37.73308000
180.75999890	-30.54292000
180.79999890	-21.55827000
180.83999890	-14.37422000
180.87999890	-7.18405700
180.91999890	0.00000000
180.95999890	10.77914000
180.99999890	19.76379000
181.03999890	30.54292000
181.07999890	43.12265000
181.11999890	52.10730000
181.15999890	64.68703000
181.19999890	79.06125000
181.23999890	91.64098000
181.27999890	107.81580000
181.31999890	120.39550000
181.35999890	129.38020000
181.39999890	134.76970000
181.43999890	134.76970000
181.47999890	129.38020000
181.51999890	120.39550000
181.55999890	111.41090000
181.59999890	98.83114000
181.63999890	86.25141000
181.67999890	75.47227000
181.71999890	64.68703000
181.75999890	52.10730000
181.79999890	41.32816000
181.83999889	30.54292000
181.87999889	21.55827000
181.91999889	12.57363000
181.95999889	1.79448800
181.99999889	-7.18405700
182.03999889	-21.55827000
182.07999889	-35.93859000
182.11999889	-50.31281000
182.15999889	-64.68703000
182.19999889	-79.06125000
182.23999889	-88.04590000
182.27999889	-95.23605000
182.31999889	-97.03055000
182.35999889	-93.44157000
182.39999889	-88.04590000
182.43999889	-80.86184000
182.47999889	-75.47227000
182.51999889	-70.07660000
182.55999889	-62.89254000
182.59999889	-61.09195000
182.63999889	-57.50298000
182.67999889	-57.50298000
182.71999889	-57.50298000
182.75999889	-59.29746000
182.79999889	-61.09195000
182.83999889	-61.09195000
182.87999889	-61.09195000
182.91999889	-57.50298000
182.95999889	-53.90789000
182.99999889	-48.51222000
183.03999889	-41.32816000
183.07999889	-35.93859000
183.11999889	-32.34352000
183.15999889	-21.55827000
183.19999889	-12.57363000
183.23999889	-1.79448800
183.27999889	7.18405700
183.31999889	14.37422000
183.35999889	23.35887000
183.39999889	34.13800000
183.43999889	46.71774000
183.47999888	57.50298000
183.51999888	71.87719000
183.55999888	86.25141000
183.59999888	100.62560000
183.63999888	115.00600000
183.67999888	127.57960000
183.71999888	132.97520000
183.75999888	134.76970000
183.79999888	132.97520000
183.83999888	125.78510000
183.87999888	118.59490000
183.91999888	107.81580000
183.95999888	95.23605000
183.99999888	84.45692000
184.03999888	71.87719000
184.07999888	59.29746000
184.11999888	48.51222000
184.15999888	37.73308000
184.19999888	26.95395000
184.23999888	17.96930000
184.27999888	7.18405700
184.31999888	-1.79448800
184.35999888	-14.37422000
184.39999888	-26.95395000
184.43999888	-41.32816000
184.47999888	-55.70238000
184.51999888	-71.87719000
184.55999888	-84.45692000
184.59999888	-93.44157000
184.63999888	-97.03055000
184.67999888	-97.03055000
184.71999888	-88.04590000
184.75999888	-80.86184000
184.79999888	-79.06125000
184.83999888	-73.67168000
184.87999888	-66.48762000
184.91999888	-61.09195000
184.95999888	-59.29746000
184.99999888	-59.29746000
185.03999888	-59.29746000
185.07999888	-59.29746000
185.11999887	-61.09195000
185.15999887	-61.09195000
185.19999887	-61.09195000
185.23999887	-61.09195000
185.27999887	-57.50298000
185.31999887	-50.31281000
185.35999887	-44.92325000
185.39999887	-37.73308000
185.43999887	-30.54292000
185.47999887	-21.55827000
185.51999887	-14.37422000
185.55999887	-7.18405700
185.59999887	0.00000000
185.63999887	8.98464900
185.67999887	19.76379000
185.71999887	28.74844000
185.75999887	39.52757000
185.79999887	50.31281000
185.83999887	62.89254000
185.87999887	75.47227000
185.91999887	89.84650000
185.95999887	106.01520000
185.99999887	118.59490000
186.03999887	129.38020000
186.07999887	132.97520000
186.11999887	132.97520000
186.15999887	129.38020000
186.19999887	122.19000000
186.23999887	113.20540000
186.27999887	102.42620000
186.31999887	89.84650000
186.35999887	79.06125000
186.39999887	66.48762000
186.43999887	55.70238000
186.47999887	44.92325000
186.51999887	32.34352000
186.55999887	23.35887000
186.59999887	14.37422000
186.63999887	5.38956800
186.67999887	-5.38956800
186.71999887	-17.96930000
186.75999886	-32.34352000
186.79999886	-46.71774000
186.83999886	-61.09195000
186.87999886	-75.47227000
186.91999886	-88.04590000
186.95999886	-95.23605000
186.99999886	-98.83114000
187.03999886	-98.83114000
187.07999886	-93.44157000
187.11999886	-88.04590000
187.15999886	-82.65633000
187.19999886	-77.26676000
187.23999886	-71.87719000
187.27999886	-68.28211000
187.31999886	-62.89254000
187.35999886	-61.09195000
187.39999886	-61.09195000
187.43999886	-61.09195000
187.47999886	-61.09195000
187.51999886	-61.09195000
187.55999886	-59.29746000
187.59999886	-57.50298000
187.63999886	-55.70238000
187.67999886	-48.51222000
187.71999886	-43.12265000
187.75999886	-35.93859000
187.79999886	-26.95395000
187.83999886	-21.55827000
187.87999886	-12.57363000
187.91999886	-5.38956800
187.95999886	1.79448800
187.99999886	12.57363000
188.03999886	25.15336000
188.07999886	25.15336000
188.11999886	30.54292000
188.15999886	55.70238000
188.19999886	71.87719000
188.23999886	77.26676000
188.27999886	88.04590000
188.31999886	100.62560000
188.35999886	118.59490000
188.39999886	127.57960000
188.43999885	129.38020000
188.47999885	129.38020000
188.51999885	127.57960000
188.55999885	118.59490000
188.59999885	107.81580000
188.63999885	98.83114000
188.67999885	86.25141000
188.71999885	75.47227000
188.75999885	61.09195000
188.79999885	50.31281000
188.83999885	41.32816000
188.87999885	28.74844000
188.91999885	21.55827000
188.95999885	12.57363000
188.99999885	1.79448800
189.03999885	-8.98464900
189.07999885	-23.35887000
189.11999885	-35.93859000
189.15999885	-50.31281000
189.19999885	-66.48762000
189.23999885	-80.86184000
189.27999885	-89.84650000
189.31999885	-97.03055000
189.35999885	-97.03055000
189.39999885	-97.03055000
189.43999885	-89.84650000
189.47999885	-84.45692000
189.51999885	-77.26676000
189.55999885	-73.67168000
189.59999885	-68.28211000
189.63999885	-61.09195000
189.67999885	-64.68703000
189.71999885	-61.09195000
189.75999885	-61.09195000
189.79999885	-64.68703000
189.83999885	-64.68703000
189.87999885	-64.68703000
189.91999885	-61.09195000
189.95999885	-57.50298000
189.99999885	-55.70238000
190.03999885	-46.71774000
190.07999884	-39.52757000
190.11999884	-32.34352000
190.15999884	-28.74844000
190.19999884	-21.55827000
190.23999884	-16.16870000
190.27999884	-14.37422000
190.31999884	-8.98464900
190.35999884	-7.18405700
190.39999884	-7.18405700
190.43999884	7.18405700
190.47999884	35.93859000
190.51999884	61.09195000
190.55999884	80.86184000
190.59999884	102.42620000
190.63999884	131.17470000
190.67999884	150.94450000
190.71999884	158.12860000
190.75999884	150.94450000
190.79999884	138.36480000
190.83999884	129.38020000
190.87999884	120.39550000
190.91999884	104.22070000
190.95999884	86.25141000
190.99999884	75.47227000
191.03999884	71.87719000
191.07999884	64.68703000
191.11999884	53.90789000
191.15999884	39.52757000
191.19999884	28.74844000
191.23999884	21.55827000
191.27999884	14.37422000
191.31999884	5.38956800
191.35999884	-7.18405700
191.39999884	-16.16870000
191.43999884	-25.15336000
191.47999884	-35.93859000
191.51999884	-48.51222000
191.55999884	-61.09195000
191.59999884	-73.67168000
191.63999884	-80.86184000
191.67999884	-86.25141000
191.71999883	-89.84650000
191.75999883	-91.64098000
191.79999883	-89.84650000
191.83999883	-86.25141000
191.87999883	-82.65633000
191.91999883	-80.86184000
191.95999883	-79.06125000
191.99999883	-75.47227000
192.03999883	-70.07660000
192.07999883	-66.48762000
192.11999883	-64.68703000
192.15999883	-62.89254000
192.19999883	-61.09195000
192.23999883	-61.09195000
192.27999883	-61.09195000
192.31999883	-59.29746000
192.35999883	-55.70238000
192.39999883	-48.51222000
192.43999883	-39.52757000
192.47999883	-28.74844000
192.51999883	-21.55827000
192.55999883	-12.57363000
192.59999883	-3.58897700
192.63999883	3.58897700
192.67999883	12.57363000
192.71999883	17.96930000
192.75999883	23.35887000
192.79999883	30.54292000
192.83999883	41.32816000
192.87999883	50.31281000
192.91999883	62.89254000
192.95999883	73.67168000
192.99999883	89.84650000
193.03999883	104.22070000
193.07999883	122.19000000
193.11999883	127.57960000
193.15999883	129.38020000
193.19999883	127.57960000
193.23999883	122.19000000
193.27999883	115.00600000
193.31999883	107.81580000
193.35999882	95.23605000
193.39999882	84.45692000
193.43999882	71.87719000
193.47999882	61.09195000
193.51999882	48.51222000
193.55999882	37.73308000
193.59999882	28.74844000
193.63999882	19.76379000
193.67999882	8.98464900
193.71999882	-1.79448800
193.75999882	-14.37422000
193.79999882	-30.54292000
193.83999882	-46.71774000
193.87999882	-62.89254000
193.91999882	-77.26676000
193.95999882	-89.84650000
193.99999882	-98.83114000
194.03999882	-100.62560000
194.07999882	-100.62560000
194.11999882	-98.83114000
194.15999882	-91.64098000
194.19999882	-86.25141000
194.23999882	-79.06125000
194.27999882	-71.87719000
194.31999882	-66.48762000
194.35999882	-64.68703000
194.39999882	-61.09195000
194.43999882	-57.50298000
194.47999882	-59.29746000
194.51999882	-64.68703000
194.55999882	-64.68703000
194.59999882	-62.89254000
194.63999882	-61.09195000
194.67999882	-59.29746000
194.71999882	-57.50298000
194.75999882	-50.31281000
194.79999882	-41.32816000
194.83999882	-34.13800000
194.87999882	-26.95395000
194.91999882	-19.76379000
194.95999882	-10.77914000
194.99999881	-1.79448800
195.03999881	7.18405700
195.07999881	14.37422000
195.11999881	25.15336000
195.15999881	35.93859000
195.19999881	46.71774000
195.23999881	57.50298000
195.27999881	70.07660000
195.31999881	82.65633000
195.35999881	95.23605000
195.39999881	109.61030000
195.43999881	122.19000000
195.47999881	129.38020000
195.51999881	129.38020000
195.55999881	129.38020000
195.59999881	122.19000000
195.63999881	113.20540000
195.67999881	102.42620000
195.71999881	91.64098000
195.75999881	80.86184000
195.79999881	70.07660000
195.83999881	57.50298000
195.87999881	46.71774000
195.91999881	35.93859000
195.95999881	26.95395000
195.99999881	16.16870000
196.03999881	7.18405700
196.07999881	-1.79448800
196.11999881	-14.37422000
196.15999881	-26.95395000
196.19999881	-43.12265000
196.23999881	-57.50298000
196.27999881	-71.87719000
196.31999881	-86.25141000
196.35999881	-93.44157000
196.39999881	-97.03055000
196.43999881	-97.03055000
196.47999881	-91.64098000
196.51999881	-88.04590000
196.55999881	-80.86184000
196.59999881	-75.47227000
196.63999880	-71.87719000
196.67999880	-66.48762000
196.71999880	-64.68703000
196.75999880	-62.89254000
196.79999880	-62.89254000
196.83999880	-64.68703000
196.87999880	-64.68703000
196.91999880	-64.68703000
196.95999880	-64.68703000
196.99999880	-62.89254000
197.03999880	-57.50298000
197.07999880	-53.90789000
197.11999880	-46.71774000
197.15999880	-39.52757000
197.19999880	-30.54292000
197.23999880	-23.35887000
197.27999880	-16.16870000
197.31999880	-8.98464900
197.35999880	-1.79448800
197.39999880	5.38956800
197.43999880	14.37422000
197.47999880	25.15336000
197.51999880	35.93859000
197.55999880	46.71774000
197.59999880	57.50298000
197.63999880	70.07660000
197.67999880	82.65633000
197.71999880	97.03055000
197.75999880	111.41090000
197.79999880	122.19000000
197.83999880	129.38020000
197.87999880	134.76970000
197.91999880	129.38020000
197.95999880	111.41090000
197.99999880	109.61030000
198.03999880	113.20540000
198.07999880	100.62560000
198.11999880	80.86184000
198.15999880	70.07660000
198.19999880	57.50298000
198.23999880	50.31281000
198.27999879	35.93859000
198.31999879	26.95395000
198.35999879	17.96930000
198.39999879	8.98464900
198.43999879	-3.58897700
198.47999879	-14.37422000
198.51999879	-28.74844000
198.55999879	-43.12265000
198.59999879	-59.29746000
198.63999879	-73.67168000
198.67999879	-86.25141000
198.71999879	-97.03055000
198.75999879	-100.62560000
198.79999879	-100.62560000
198.83999879	-91.64098000
198.87999879	-86.25141000
198.91999879	-75.47227000
198.95999879	-70.07660000
198.99999879	-64.68703000
199.03999879	-62.89254000
199.07999879	-59.29746000
199.11999879	-59.29746000
199.15999879	-59.29746000
199.19999879	-59.29746000
199.23999879	-59.29746000
199.27999879	-62.89254000
199.31999879	-62.89254000
199.35999879	-61.09195000
199.39999879	-55.70238000
199.43999879	-53.90789000
199.47999879	-44.92325000
199.51999879	-37.73308000
199.55999879	-30.54292000
199.59999879	-25.15336000
199.63999879	-14.37422000
199.67999879	-7.18405700
199.71999879	-1.79448800
199.75999879	5.38956800
199.79999879	16.16870000
199.83999879	26.95395000
199.87999879	35.93859000
199.91999878	46.71774000
199.95999878	59.29746000
199.99999878	73.67168000
200.03999878	89.84650000
200.07999878	104.22070000
200.11999878	118.59490000
